SpectraSuite Data File
++++++++++++++++++++++++++++++++++++
Date: Tue Apr 02 18:42:31 EDT 2013
User: group
Dark Spectrum Present: No
Reference Spectrum Present: No
Number of Sampled Component Spectra: 1
Spectrometers: USB2E7196
Integration Time (usec): 580000 (USB2E7196)
Spectra Averaged: 2 (USB2E7196)
Boxcar Smoothing: 10 (USB2E7196)
Correct for Electrical Dark: No (USB2E7196)
Strobe/Lamp Enabled: No (USB2E7196)
Correct for Detector Non-linearity: No (USB2E7196)
Correct for Stray Light: No (USB2E7196)
Number of Pixels in Processed Spectrum: 2048
>>>>>Begin Processed Spectral Data<<<<<
339.09	0.00
339.48	194.00
339.86	198.00
340.24	196.50
340.63	199.50
341.01	226.00
341.39	204.50
341.78	206.50
342.16	211.00
342.54	210.50
342.93	198.67
343.31	208.45
343.69	209.17
344.07	209.57
344.46	210.43
344.84	210.93
345.22	209.98
345.60	210.26
345.99	210.50
346.37	210.36
346.75	210.33
347.13	210.48
347.52	210.33
347.90	211.19
348.28	211.14
348.66	211.43
349.05	210.62
349.43	210.71
349.81	211.14
350.19	211.00
350.57	211.19
350.96	211.55
351.34	211.71
351.72	211.57
352.10	211.60
352.48	211.17
352.87	211.02
353.25	211.02
353.63	210.76
354.01	210.64
354.39	210.79
354.77	210.40
355.15	210.86
355.54	210.88
355.92	210.10
356.30	210.07
356.68	211.05
357.06	211.17
357.44	210.83
357.82	210.45
358.20	211.52
358.58	211.26
358.97	211.12
359.35	211.50
359.73	211.83
360.11	211.69
360.49	212.10
360.87	212.17
361.25	212.74
361.63	213.50
362.01	213.71
362.39	213.55
362.77	214.14
363.15	213.90
363.53	213.95
363.91	214.36
364.29	214.45
364.67	212.76
365.05	212.98
365.43	213.43
365.81	213.50
366.19	213.74
366.57	214.50
366.95	214.55
367.33	214.29
367.71	214.12
368.09	214.71
368.47	214.95
368.85	214.81
369.23	215.10
369.61	214.50
369.99	215.17
370.37	215.57
370.75	216.83
371.13	216.50
371.51	216.36
371.89	216.31
372.27	216.33
372.65	216.64
373.03	216.69
373.41	216.36
373.78	216.50
374.16	215.60
374.54	214.86
374.92	214.83
375.30	214.93
375.68	215.00
376.06	215.12
376.44	214.55
376.82	214.86
377.19	214.74
377.57	214.76
377.95	214.10
378.33	213.69
378.71	212.05
379.09	212.55
379.47	212.74
379.84	212.60
380.22	212.52
380.60	212.24
380.98	211.95
381.36	211.98
381.73	211.79
382.11	211.90
382.49	212.29
382.87	211.98
383.25	212.00
383.62	214.33
384.00	213.98
384.38	214.19
384.76	214.52
385.13	215.21
385.51	215.38
385.89	215.12
386.27	215.50
386.64	216.10
387.02	215.71
387.40	215.62
387.78	215.83
388.15	216.24
388.53	215.93
388.91	216.05
389.29	215.95
389.66	216.24
390.04	215.90
390.42	216.14
390.79	216.36
391.17	216.19
391.55	213.95
391.92	213.86
392.30	214.14
392.68	213.88
393.05	213.55
393.43	213.40
393.81	213.60
394.18	213.29
394.56	213.14
394.94	213.62
395.31	213.48
395.69	213.83
396.06	213.79
396.44	214.02
396.82	213.76
397.19	214.93
397.57	214.81
397.95	215.19
398.32	214.43
398.70	214.43
399.07	215.05
399.45	215.12
399.82	215.19
400.20	214.79
400.58	214.76
400.95	214.10
401.33	214.64
401.70	216.02
402.08	216.26
402.45	216.26
402.83	217.00
403.20	217.17
403.58	217.40
403.95	217.88
404.33	218.40
404.71	218.93
405.08	220.05
405.46	220.38
405.83	221.02
406.21	221.62
406.58	222.19
406.96	222.38
407.33	222.93
407.70	223.95
408.08	226.36
408.45	227.17
408.83	228.26
409.20	228.69
409.58	228.26
409.95	229.55
410.33	230.45
410.70	230.76
411.08	232.21
411.45	233.21
411.82	234.14
412.20	235.90
412.57	238.29
412.95	237.93
413.32	239.79
413.69	240.86
414.07	242.76
414.44	244.36
414.82	246.33
415.19	248.57
415.56	250.48
415.94	251.74
416.31	254.79
416.68	257.48
417.06	260.81
417.43	264.45
417.81	267.81
418.18	271.55
418.55	275.24
418.93	279.48
419.30	283.64
419.67	287.98
420.04	292.31
420.42	296.29
420.79	303.45
421.16	308.74
421.54	316.05
421.91	322.19
422.28	328.79
422.66	335.43
423.03	343.90
423.40	351.07
423.77	358.36
424.15	365.48
424.52	373.50
424.89	382.19
425.26	390.07
425.64	397.74
426.01	406.29
426.38	415.05
426.75	424.26
427.13	433.38
427.50	442.90
427.87	453.07
428.24	463.40
428.61	471.76
428.99	483.50
429.36	493.69
429.73	504.86
430.10	516.29
430.47	527.95
430.85	537.93
431.22	550.17
431.59	564.81
431.96	577.60
432.33	591.50
432.70	604.95
433.08	620.74
433.45	636.12
433.82	651.93
434.19	669.29
434.56	685.90
434.93	701.90
435.30	718.69
435.68	736.40
436.05	753.93
436.42	771.26
436.79	787.07
437.16	804.57
437.53	822.98
437.90	841.14
438.27	859.45
438.64	877.79
439.01	895.69
439.38	909.64
439.75	924.90
440.13	941.71
440.50	957.12
440.87	970.57
441.24	983.83
441.61	997.98
441.98	1008.93
442.35	1021.38
442.72	1034.83
443.09	1047.81
443.46	1055.52
443.83	1060.95
444.20	1066.12
444.57	1072.31
444.94	1075.40
445.31	1079.26
445.68	1085.36
446.05	1086.43
446.42	1085.95
446.79	1084.55
447.16	1082.69
447.53	1081.29
447.90	1075.21
448.27	1069.43
448.64	1060.81
449.01	1055.33
449.37	1044.07
449.74	1032.93
450.11	1021.29
450.48	1006.40
450.85	990.88
451.22	977.98
451.59	965.71
451.96	953.81
452.33	938.00
452.70	923.93
453.07	906.12
453.43	886.38
453.80	869.86
454.17	853.64
454.54	837.88
454.91	821.69
455.28	805.24
455.65	789.98
456.02	778.31
456.38	765.48
456.75	749.50
457.12	736.43
457.49	723.17
457.86	709.36
458.23	699.14
458.59	687.26
458.96	674.93
459.33	664.14
459.70	653.19
460.07	644.88
460.43	635.00
460.80	626.12
461.17	617.93
461.54	609.48
461.91	601.26
462.27	592.93
462.64	585.52
463.01	578.38
463.38	571.76
463.74	560.95
464.11	553.98
464.48	547.93
464.85	541.26
465.21	537.10
465.58	531.45
465.95	524.67
466.32	519.33
466.68	514.26
467.05	509.31
467.42	504.67
467.78	499.29
468.15	494.55
468.52	490.69
468.88	485.33
469.25	480.86
469.62	477.52
469.98	473.57
470.35	470.24
470.72	467.02
471.08	462.57
471.45	459.83
471.82	457.10
472.18	453.24
472.55	450.69
472.92	446.95
473.28	443.90
473.65	440.95
474.02	438.43
474.38	436.26
474.75	433.90
475.11	431.36
475.48	429.52
475.85	427.81
476.21	425.74
476.58	424.31
476.94	422.95
477.31	421.26
477.67	420.24
478.04	419.05
478.41	417.67
478.77	419.29
479.14	417.81
479.50	416.88
479.87	416.86
480.23	416.62
480.60	416.14
480.96	416.33
481.33	417.12
481.69	416.76
482.06	417.05
482.42	417.71
482.79	418.12
483.15	418.29
483.52	419.07
483.88	419.86
484.25	420.48
484.61	421.69
484.98	422.17
485.34	423.76
485.71	425.21
486.07	426.36
486.44	425.57
486.80	427.26
487.17	429.12
487.53	431.74
487.90	434.02
488.26	436.86
488.62	439.33
488.99	441.07
489.35	444.02
489.72	446.62
490.08	449.24
490.44	451.86
490.81	455.48
491.17	458.24
491.54	461.93
491.90	465.98
492.26	469.00
492.63	473.02
492.99	475.95
493.36	480.00
493.72	484.79
494.08	489.71
494.45	494.12
494.81	498.60
495.17	502.93
495.54	508.29
495.90	512.81
496.26	518.26
496.63	524.12
496.99	529.26
497.35	534.69
497.72	540.64
498.08	546.57
498.44	552.48
498.80	559.02
499.17	564.98
499.53	570.83
499.89	578.14
500.26	584.71
500.62	591.33
500.98	598.52
501.34	605.29
501.71	612.38
502.07	619.81
502.43	626.95
502.79	633.79
503.16	640.98
503.52	648.31
503.88	655.26
504.24	662.45
504.60	670.50
504.97	678.95
505.33	686.86
505.69	695.90
506.05	703.95
506.41	711.69
506.78	719.19
507.14	726.64
507.50	734.29
507.86	742.50
508.22	750.93
508.59	758.48
508.95	766.38
509.31	774.57
509.67	782.40
510.03	790.36
510.39	798.17
510.75	805.74
511.12	813.52
511.48	821.69
511.84	828.83
512.20	836.48
512.56	844.29
512.92	851.64
513.28	859.00
513.64	866.10
514.00	873.05
514.37	880.69
514.73	888.90
515.09	896.57
515.45	903.38
515.81	911.19
516.17	918.74
516.53	925.43
516.89	931.69
517.25	938.00
517.61	945.29
517.97	952.00
518.33	958.26
518.69	965.33
519.05	971.64
519.41	978.98
519.77	986.05
520.13	991.57
520.49	997.05
520.85	1002.48
521.21	1008.74
521.57	1015.24
521.93	1020.95
522.29	1025.95
522.65	1030.33
523.01	1035.52
523.37	1039.52
523.73	1043.74
524.09	1048.98
524.45	1053.67
524.81	1059.00
525.17	1064.00
525.53	1068.81
525.89	1074.14
526.25	1078.55
526.61	1082.14
526.97	1086.50
527.33	1090.14
527.68	1096.05
528.04	1100.79
528.40	1105.05
528.76	1108.83
529.12	1112.95
529.48	1117.29
529.84	1121.69
530.20	1126.90
530.56	1132.19
530.91	1137.29
531.27	1142.33
531.63	1146.33
531.99	1150.48
532.35	1154.57
532.71	1157.81
533.07	1162.98
533.42	1168.62
533.78	1173.52
534.14	1178.69
534.50	1182.88
534.86	1187.24
535.21	1189.60
535.57	1193.83
535.93	1196.83
536.29	1201.48
536.65	1204.86
537.00	1209.17
537.36	1213.43
537.72	1216.95
538.08	1220.71
538.44	1223.74
538.79	1227.38
539.15	1231.10
539.51	1234.26
539.87	1238.24
540.22	1242.07
540.58	1244.83
540.94	1246.62
541.29	1249.95
541.65	1252.48
542.01	1255.31
542.37	1257.69
542.72	1260.07
543.08	1262.67
543.44	1266.07
543.79	1267.98
544.15	1271.57
544.51	1274.29
544.87	1276.57
545.22	1279.79
545.58	1282.21
545.94	1285.31
546.29	1287.69
546.65	1290.93
547.01	1293.26
547.36	1296.05
547.72	1298.45
548.07	1301.00
548.43	1303.21
548.79	1304.57
549.14	1307.26
549.50	1310.69
549.86	1313.64
550.21	1317.38
550.57	1320.60
550.92	1323.62
551.28	1327.12
551.64	1330.55
551.99	1333.55
552.35	1336.71
552.70	1339.93
553.06	1343.36
553.41	1346.45
553.77	1351.29
554.13	1353.95
554.48	1359.24
554.84	1363.40
555.19	1367.93
555.55	1372.26
555.90	1375.90
556.26	1380.02
556.61	1383.50
556.97	1386.60
557.32	1390.62
557.68	1394.17
558.03	1397.76
558.39	1401.71
558.74	1406.00
559.10	1409.43
559.45	1413.43
559.81	1418.00
560.16	1421.74
560.52	1425.90
560.87	1430.52
561.23	1432.83
561.58	1439.74
561.94	1443.45
562.29	1447.52
562.64	1451.93
563.00	1455.69
563.35	1461.14
563.71	1466.10
564.06	1471.83
564.42	1476.95
564.77	1483.07
565.12	1489.24
565.48	1496.76
565.83	1503.21
566.19	1509.52
566.54	1514.98
566.89	1520.81
567.25	1527.05
567.60	1533.88
567.96	1541.14
568.31	1547.38
568.66	1555.12
569.02	1558.24
569.37	1563.83
569.72	1569.71
570.08	1573.98
570.43	1579.57
570.78	1584.60
571.14	1589.67
571.49	1594.40
571.84	1599.98
572.20	1604.64
572.55	1609.31
572.90	1612.76
573.26	1616.60
573.61	1619.79
573.96	1624.71
574.31	1628.60
574.67	1631.43
575.02	1633.52
575.37	1635.50
575.72	1638.26
576.08	1640.57
576.43	1643.71
576.78	1646.38
577.13	1649.02
577.49	1654.50
577.84	1659.12
578.19	1663.12
578.54	1667.74
578.90	1671.52
579.25	1674.36
579.60	1676.86
579.95	1679.40
580.30	1682.62
580.66	1686.31
581.01	1690.14
581.36	1692.07
581.71	1695.36
582.06	1700.26
582.42	1704.95
582.77	1708.62
583.12	1712.31
583.47	1715.88
583.82	1720.00
584.17	1723.57
584.53	1726.93
584.88	1729.00
585.23	1731.98
585.58	1734.02
585.93	1736.00
586.28	1738.50
586.63	1740.64
586.98	1743.76
587.34	1747.57
587.69	1749.14
588.04	1751.21
588.39	1752.86
588.74	1755.17
589.09	1757.57
589.44	1757.10
589.79	1758.36
590.14	1759.76
590.49	1760.95
590.84	1763.00
591.19	1764.74
591.54	1766.36
591.89	1767.40
592.25	1770.19
592.60	1769.52
592.95	1771.14
593.30	1772.43
593.65	1773.24
594.00	1774.43
594.35	1780.83
594.70	1780.60
595.05	1780.67
595.40	1780.95
595.75	1782.07
596.10	1783.67
596.45	1784.50
596.80	1786.05
597.15	1786.81
597.50	1786.86
597.85	1789.10
598.19	1788.98
598.54	1788.45
598.89	1788.02
599.24	1787.88
599.59	1785.98
599.94	1787.07
600.29	1786.98
600.64	1786.69
600.99	1786.95
601.34	1787.86
601.69	1782.00
602.04	1781.02
602.39	1782.29
602.74	1782.50
603.08	1781.60
603.43	1781.57
603.78	1781.05
604.13	1781.05
604.48	1779.38
604.83	1779.50
605.18	1777.40
605.53	1776.71
605.87	1776.55
606.22	1776.52
606.57	1775.38
606.92	1774.62
607.27	1773.76
607.62	1772.14
607.96	1770.69
608.31	1770.02
608.66	1767.50
609.01	1765.64
609.36	1766.02
609.70	1763.55
610.05	1761.36
610.40	1759.79
610.75	1756.55
611.10	1754.10
611.44	1750.98
611.79	1748.93
612.14	1745.90
612.49	1742.24
612.83	1738.45
613.18	1735.19
613.53	1731.50
613.88	1728.69
614.22	1725.45
614.57	1720.90
614.92	1716.86
615.27	1713.40
615.61	1708.40
615.96	1704.60
616.31	1700.93
616.65	1696.60
617.00	1693.43
617.35	1690.60
617.70	1686.71
618.04	1683.40
618.39	1678.79
618.74	1674.45
619.08	1670.10
619.43	1666.93
619.78	1663.57
620.12	1660.10
620.47	1655.17
620.82	1650.48
621.16	1646.12
621.51	1642.07
621.85	1637.93
622.20	1633.60
622.55	1629.07
622.89	1625.14
623.24	1621.83
623.59	1618.02
623.93	1613.69
624.28	1609.60
624.62	1606.00
624.97	1603.19
625.32	1598.57
625.66	1594.71
626.01	1591.00
626.35	1588.02
626.70	1582.83
627.04	1580.05
627.39	1575.57
627.73	1573.19
628.08	1570.17
628.43	1565.60
628.77	1561.43
629.12	1558.62
629.46	1556.19
629.81	1551.86
630.15	1547.19
630.50	1542.02
630.84	1536.38
631.19	1530.71
631.53	1525.07
631.88	1517.86
632.22	1510.64
632.57	1506.69
632.91	1501.74
633.26	1497.45
633.60	1490.86
633.95	1485.45
634.29	1478.81
634.64	1474.31
634.98	1468.50
635.32	1464.64
635.67	1461.24
636.01	1456.69
636.36	1450.74
636.70	1445.45
637.05	1440.00
637.39	1435.31
637.73	1430.43
638.08	1426.02
638.42	1420.98
638.77	1415.81
639.11	1412.07
639.45	1406.64
639.80	1400.50
640.14	1395.10
640.49	1388.60
640.83	1383.29
641.17	1378.50
641.52	1373.64
641.86	1367.71
642.20	1362.88
642.55	1354.83
642.89	1347.45
643.23	1340.88
643.58	1335.55
643.92	1328.81
644.26	1323.52
644.61	1318.21
644.95	1311.90
645.29	1306.02
645.64	1300.79
645.98	1294.64
646.32	1287.95
646.66	1281.62
647.01	1275.55
647.35	1269.55
647.69	1263.57
648.04	1258.36
648.38	1252.26
648.72	1246.02
649.06	1239.79
649.41	1232.05
649.75	1226.07
650.09	1219.95
650.43	1213.26
650.78	1206.29
651.12	1198.86
651.46	1191.57
651.80	1184.33
652.14	1177.60
652.49	1171.24
652.83	1164.83
653.17	1157.98
653.51	1150.81
653.85	1145.17
654.20	1138.02
654.54	1131.07
654.88	1124.55
655.22	1118.14
655.56	1111.14
655.90	1104.40
656.25	1096.79
656.59	1090.86
656.93	1085.00
657.27	1079.76
657.61	1072.79
657.95	1065.93
658.29	1059.90
658.64	1054.64
658.98	1048.45
659.32	1041.95
659.66	1035.21
660.00	1028.02
660.34	1021.38
660.68	1015.95
661.02	1009.14
661.36	1002.95
661.70	996.52
662.05	990.62
662.39	984.50
662.73	978.76
663.07	973.48
663.41	968.05
663.75	961.71
664.09	955.05
664.43	948.00
664.77	942.48
665.11	936.45
665.45	930.76
665.79	924.29
666.13	917.38
666.47	911.79
666.81	905.64
667.15	899.71
667.49	895.14
667.83	889.69
668.17	883.81
668.51	878.14
668.85	873.12
669.19	868.33
669.53	861.50
669.87	855.12
670.21	848.43
670.55	842.48
670.89	837.95
671.23	833.05
671.57	827.79
671.91	822.52
672.25	817.26
672.58	812.26
672.92	807.31
673.26	802.57
673.60	797.57
673.94	792.38
674.28	787.45
674.62	782.55
674.96	777.02
675.30	773.21
675.64	768.38
675.97	763.24
676.31	757.43
676.65	752.48
676.99	749.00
677.33	744.55
677.67	740.33
678.01	734.50
678.34	730.29
678.68	726.10
679.02	720.62
679.36	716.05
679.70	711.38
680.04	706.62
680.37	701.45
680.71	696.50
681.05	692.55
681.39	688.36
681.73	683.17
682.06	678.00
682.40	672.90
682.74	668.29
683.08	664.21
683.42	659.24
683.75	655.31
684.09	649.88
684.43	645.14
684.77	640.29
685.10	635.98
685.44	630.60
685.78	625.90
686.12	621.98
686.45	617.19
686.79	612.33
687.13	608.14
687.46	604.38
687.80	600.62
688.14	596.31
688.48	591.88
688.81	587.69
689.15	584.60
689.49	580.40
689.82	576.31
690.16	571.67
690.50	567.93
690.83	564.12
691.17	559.60
691.51	555.24
691.84	551.93
692.18	548.33
692.52	544.50
692.85	540.69
693.19	538.17
693.52	534.60
693.86	531.14
694.20	526.88
694.53	523.50
694.87	519.71
695.21	515.33
695.54	511.45
695.88	507.76
696.21	503.62
696.55	499.74
696.88	496.26
697.22	492.52
697.56	489.50
697.89	485.52
698.23	482.71
698.56	479.33
698.90	475.52
699.23	471.83
699.57	469.12
699.90	465.83
700.24	461.55
700.58	458.67
700.91	456.05
701.25	455.12
701.58	452.83
701.92	450.45
702.25	447.74
702.59	444.93
702.92	442.17
703.26	439.26
703.59	436.57
703.93	435.93
704.26	433.93
704.60	430.76
704.93	427.79
705.26	424.81
705.60	422.83
705.93	420.14
706.27	418.40
706.60	416.19
706.94	414.60
707.27	412.05
707.61	409.57
707.94	406.79
708.27	402.69
708.61	399.36
708.94	396.33
709.28	394.12
709.61	391.86
709.94	389.69
710.28	387.19
710.61	385.50
710.95	381.29
711.28	380.38
711.61	378.81
711.95	378.05
712.28	375.93
712.61	373.90
712.95	373.26
713.28	371.67
713.61	369.36
713.95	366.67
714.28	365.07
714.61	363.17
714.95	361.21
715.28	359.21
715.61	357.36
715.95	355.95
716.28	353.90
716.61	352.60
716.95	350.83
717.28	349.12
717.61	347.19
717.94	345.88
718.28	342.31
718.61	340.21
718.94	337.95
719.27	336.36
719.61	334.67
719.94	332.33
720.27	329.71
720.60	327.76
720.94	326.31
721.27	324.95
721.60	323.62
721.93	322.33
722.27	321.50
722.60	320.43
722.93	318.76
723.26	317.98
723.59	316.26
723.93	314.86
724.26	313.93
724.59	312.81
724.92	311.62
725.25	311.31
725.59	310.26
725.92	309.29
726.25	308.55
726.58	307.86
726.91	306.76
727.24	306.10
727.57	305.29
727.91	303.98
728.24	303.07
728.57	302.12
728.90	301.19
729.23	299.69
729.56	299.62
729.89	298.76
730.22	297.64
730.55	296.43
730.89	295.83
731.22	294.81
731.55	293.76
731.88	292.98
732.21	291.50
732.54	290.60
732.87	289.69
733.20	288.62
733.53	287.43
733.86	286.62
734.19	285.38
734.52	284.83
734.85	285.26
735.18	284.05
735.51	283.60
735.84	283.12
736.17	282.79
736.50	281.14
736.83	282.55
737.16	281.62
737.49	281.12
737.82	280.24
738.15	279.95
738.48	279.07
738.81	277.95
739.14	277.21
739.47	276.36
739.80	275.55
740.13	275.14
740.46	274.21
740.79	273.12
741.12	272.62
741.45	271.62
741.78	269.76
742.11	269.71
742.44	268.45
742.77	267.81
743.10	266.55
743.43	265.74
743.75	263.02
744.08	265.02
744.41	264.17
744.74	263.43
745.07	262.17
745.40	261.86
745.73	262.12
746.06	261.55
746.39	261.17
746.71	260.45
747.04	259.55
747.37	258.95
747.70	258.93
748.03	258.31
748.36	258.07
748.68	257.69
749.01	256.57
749.34	256.36
749.67	255.83
750.00	255.93
750.33	256.88
750.65	256.69
750.98	253.50
751.31	253.29
751.64	252.86
751.97	253.88
752.29	253.69
752.62	252.50
752.95	252.07
753.28	251.43
753.60	250.93
753.93	250.98
754.26	250.33
754.59	249.21
754.91	248.67
755.24	248.19
755.57	247.74
755.90	247.29
756.22	246.43
756.55	245.60
756.88	244.57
757.20	242.81
757.53	241.69
757.86	241.31
758.19	241.00
758.51	240.69
758.84	239.00
759.17	237.95
759.49	237.52
759.82	238.29
760.15	238.07
760.47	237.83
760.80	237.07
761.13	237.33
761.45	237.21
761.78	236.98
762.11	236.52
762.43	236.07
762.76	235.67
763.08	235.79
763.41	235.83
763.74	235.95
764.06	235.93
764.39	235.81
764.71	235.55
765.04	235.14
765.37	234.62
765.69	234.50
766.02	234.33
766.34	233.90
766.67	232.57
767.00	232.69
767.32	233.24
767.65	234.21
767.97	233.98
768.30	233.67
768.62	233.48
768.95	233.26
769.27	233.21
769.60	233.38
769.92	232.93
770.25	232.24
770.57	231.55
770.90	231.05
771.22	230.60
771.55	230.67
771.87	230.45
772.20	230.29
772.52	231.55
772.85	233.76
773.17	233.62
773.50	233.48
773.82	232.93
774.15	232.12
774.47	230.29
774.80	229.69
775.12	229.67
775.45	229.24
775.77	228.95
776.09	228.79
776.42	228.79
776.74	229.12
777.07	228.95
777.39	228.81
777.72	228.86
778.04	228.93
778.36	228.64
778.69	228.62
779.01	228.76
779.33	227.07
779.66	224.86
779.98	224.71
780.31	224.71
780.63	225.38
780.95	225.40
781.28	225.48
781.60	225.29
781.92	225.26
782.25	225.36
782.57	225.38
782.89	225.05
783.22	224.69
783.54	224.10
783.86	224.31
784.19	224.21
784.51	224.43
784.83	223.95
785.16	223.90
785.48	223.69
785.80	223.69
786.12	223.81
786.45	223.48
786.77	223.31
787.09	223.07
787.42	222.33
787.74	222.31
788.06	222.40
788.38	222.26
788.71	221.93
789.03	222.00
789.35	222.02
789.67	221.62
789.99	221.64
790.32	221.31
790.64	221.38
790.96	223.14
791.28	222.40
791.61	222.40
791.93	222.45
792.25	222.52
792.57	223.79
792.89	223.24
793.21	223.57
793.54	223.62
793.86	223.60
794.18	223.52
794.50	223.00
794.82	222.98
795.14	223.21
795.47	223.55
795.79	223.48
796.11	223.07
796.43	222.90
796.75	222.64
797.07	222.79
797.39	222.52
797.71	220.81
798.04	220.74
798.36	221.02
798.68	220.62
799.00	220.62
799.32	219.21
799.64	219.48
799.96	219.10
800.28	219.45
800.60	219.05
800.92	219.14
801.24	219.02
801.56	219.17
801.89	218.95
802.21	218.95
802.53	218.76
802.85	219.26
803.17	220.50
803.49	220.14
803.81	219.88
804.13	219.67
804.45	219.36
804.77	219.50
805.09	219.31
805.41	219.07
805.73	218.67
806.05	218.29
806.37	218.14
806.69	218.00
807.01	217.60
807.33	217.90
807.65	217.26
807.97	218.21
808.28	217.86
808.60	217.88
808.92	217.45
809.24	218.55
809.56	217.83
809.88	216.90
810.20	217.07
810.52	217.60
810.84	217.36
811.16	217.21
811.48	217.14
811.80	217.98
812.12	217.95
812.43	218.31
812.75	218.60
813.07	218.24
813.39	218.40
813.71	218.10
814.03	217.86
814.35	217.83
814.67	216.95
814.98	216.76
815.30	216.71
815.62	216.48
815.94	215.12
816.26	215.43
816.58	214.88
816.89	215.00
817.21	214.52
817.53	214.48
817.85	214.79
818.17	214.69
818.48	213.57
818.80	213.95
819.12	213.45
819.44	213.05
819.76	213.17
820.07	213.29
820.39	213.43
820.71	213.33
821.03	213.48
821.34	213.31
821.66	213.64
821.98	213.76
822.30	213.64
822.61	215.10
822.93	214.79
823.25	214.98
823.57	214.55
823.88	214.79
824.20	214.86
824.52	215.17
824.83	215.36
825.15	215.38
825.47	215.31
825.79	215.43
826.10	215.29
826.42	214.86
826.74	215.07
827.05	214.95
827.37	214.98
827.69	214.67
828.00	214.79
828.32	214.57
828.64	214.29
828.95	215.52
829.27	214.69
829.58	214.55
829.90	214.98
830.22	215.19
830.53	214.83
830.85	214.55
831.17	214.05
831.48	213.52
831.80	213.57
832.11	213.33
832.43	213.43
832.75	213.50
833.06	215.21
833.38	214.29
833.69	214.36
834.01	214.74
834.32	214.98
834.64	214.86
834.96	215.21
835.27	215.00
835.59	214.05
835.90	213.52
836.22	213.95
836.53	213.26
836.85	213.00
837.16	214.90
837.48	215.14
837.79	215.93
838.11	216.38
838.42	216.38
838.74	216.74
839.05	216.33
839.37	216.31
839.68	214.83
840.00	214.69
840.31	214.81
840.63	214.45
840.94	214.26
841.26	214.02
841.57	213.74
841.88	213.98
842.20	214.00
842.51	213.76
842.83	213.57
843.14	215.50
843.46	215.83
843.77	214.74
844.08	214.57
844.40	213.86
844.71	213.55
845.03	213.26
845.34	213.17
845.65	213.33
845.97	213.55
846.28	213.69
846.60	214.17
846.91	213.79
847.22	213.76
847.54	214.07
847.85	214.24
848.16	214.19
848.48	214.10
848.79	214.90
849.10	215.33
849.42	215.43
849.73	213.62
850.04	213.67
850.36	212.93
850.67	213.36
850.98	213.38
851.30	213.74
851.61	213.69
851.92	213.69
852.23	214.24
852.55	214.26
852.86	214.45
853.17	214.64
853.49	215.38
853.80	215.67
854.11	215.98
854.42	216.26
854.74	216.14
855.05	216.17
855.36	214.88
855.67	214.98
855.99	214.86
856.30	217.43
856.61	217.07
856.92	217.17
857.23	217.14
857.55	216.83
857.86	216.43
858.17	216.90
858.48	216.48
858.79	216.00
859.11	216.05
859.42	215.69
859.73	215.40
860.04	215.05
860.35	214.64
860.66	213.86
860.98	213.69
861.29	213.98
861.60	213.81
861.91	214.26
862.22	213.83
862.53	213.50
862.84	211.02
863.16	211.50
863.47	211.43
863.78	211.05
864.09	211.36
864.40	211.48
864.71	211.48
865.02	211.76
865.33	211.60
865.64	211.05
865.95	211.10
866.27	212.45
866.58	212.17
866.89	212.33
867.20	212.33
867.51	212.17
867.82	212.02
868.13	212.50
868.44	212.33
868.75	212.74
869.06	213.10
869.37	213.29
869.68	212.90
869.99	213.12
870.30	213.26
870.61	213.38
870.92	213.24
871.23	213.05
871.54	213.21
871.85	213.76
872.16	214.17
872.47	214.17
872.78	212.71
873.09	213.12
873.40	212.88
873.71	213.17
874.02	213.38
874.33	213.07
874.64	212.48
874.95	212.88
875.26	212.55
875.56	212.45
875.87	212.29
876.18	212.24
876.49	214.17
876.80	214.07
877.11	213.62
877.42	213.64
877.73	213.71
878.04	213.67
878.35	213.62
878.66	213.67
878.96	213.74
879.27	213.86
879.58	213.67
879.89	213.55
880.20	214.05
880.51	214.02
880.82	214.19
881.12	214.71
881.43	214.29
881.74	214.14
882.05	213.90
882.36	214.02
882.67	214.17
882.97	212.19
883.28	212.02
883.59	212.19
883.90	212.62
884.21	212.71
884.51	212.45
884.82	212.31
885.13	212.40
885.44	212.17
885.74	212.26
886.05	212.24
886.36	212.36
886.67	211.64
886.98	212.52
887.28	212.57
887.59	212.29
887.90	212.29
888.20	212.21
888.51	212.62
888.82	212.43
889.13	212.55
889.43	214.19
889.74	214.10
890.05	214.12
890.35	213.69
890.66	213.55
890.97	213.40
891.28	213.00
891.58	212.95
891.89	213.00
892.20	212.79
892.50	212.48
892.81	212.26
893.12	212.38
893.42	211.38
893.73	211.52
894.04	211.69
894.34	211.83
894.65	211.90
894.95	211.67
895.26	211.76
895.57	212.57
895.87	210.71
896.18	211.05
896.48	211.10
896.79	211.31
897.10	211.55
897.40	211.62
897.71	211.90
898.01	211.76
898.32	211.81
898.63	211.95
898.93	212.07
899.24	212.21
899.54	212.26
899.85	212.21
900.15	212.10
900.46	211.98
900.76	212.14
901.07	212.02
901.38	212.02
901.68	212.19
901.99	211.17
902.29	211.26
902.60	211.26
902.90	211.05
903.21	210.86
903.51	210.79
903.82	211.21
904.12	211.29
904.43	211.19
904.73	211.31
905.03	211.19
905.34	213.31
905.64	213.29
905.95	213.21
906.25	213.24
906.56	213.02
906.86	213.02
907.17	212.95
907.47	212.98
907.77	212.88
908.08	212.83
908.38	213.14
908.69	213.31
908.99	213.71
909.30	214.05
909.60	214.12
909.90	214.40
910.21	213.81
910.51	213.67
910.81	213.83
911.12	213.98
911.42	214.12
911.73	212.05
912.03	212.02
912.33	212.45
912.64	212.45
912.94	212.43
913.24	212.10
913.55	211.79
913.85	211.55
914.15	211.86
914.46	211.88
914.76	211.43
915.06	211.17
915.37	210.86
915.67	210.67
915.97	210.76
916.27	210.14
916.58	210.24
916.88	210.02
917.18	209.71
917.49	211.26
917.79	211.24
918.09	211.76
918.39	212.48
918.70	212.07
919.00	212.05
919.30	213.10
919.60	213.29
919.91	213.24
920.21	213.50
920.51	213.10
920.81	212.93
921.12	213.33
921.42	213.36
921.72	213.48
922.02	213.52
922.32	213.71
922.63	213.83
922.93	214.93
923.23	215.07
923.53	215.19
923.83	213.71
924.13	213.88
924.44	213.76
924.74	213.90
925.04	214.69
925.34	214.81
925.64	213.86
925.94	213.74
926.24	215.10
926.55	215.12
926.85	215.36
927.15	215.21
927.45	215.36
927.75	215.33
928.05	215.24
928.35	214.98
928.65	215.19
928.95	215.52
929.26	214.90
929.56	215.36
929.86	215.50
930.16	215.26
930.46	215.10
930.76	214.95
931.06	214.17
931.36	213.43
931.66	213.76
931.96	214.05
932.26	214.29
932.56	213.33
932.86	213.52
933.16	213.71
933.46	213.74
933.76	213.29
934.06	213.98
934.36	214.83
934.66	214.79
934.96	214.48
935.26	214.33
935.56	214.43
935.86	213.74
936.16	213.55
936.46	213.43
936.76	213.36
937.06	213.24
937.36	213.33
937.66	213.43
937.96	213.00
938.26	212.57
938.56	212.29
938.86	212.38
939.16	212.67
939.46	212.74
939.76	212.95
940.06	213.17
940.35	212.48
940.65	211.24
940.95	211.57
941.25	211.31
941.55	211.00
941.85	211.02
942.15	211.69
942.45	212.29
942.75	212.24
943.04	212.24
943.34	212.40
943.64	212.36
943.94	212.07
944.24	212.26
944.54	212.38
944.84	212.38
945.13	212.02
945.43	211.62
945.73	211.52
946.03	211.21
946.33	210.95
946.62	210.88
946.92	211.10
947.22	210.98
947.52	211.02
947.82	211.64
948.11	211.17
948.41	210.69
948.71	209.90
949.01	210.10
949.31	209.88
949.60	209.71
949.90	209.90
950.20	209.95
950.50	209.93
950.79	209.86
951.09	210.33
951.39	210.24
951.69	210.29
951.98	210.74
952.28	211.10
952.58	210.88
952.87	210.79
953.17	211.02
953.47	210.83
953.76	210.95
954.06	210.31
954.36	210.14
954.66	209.95
954.95	210.67
955.25	210.86
955.55	211.14
955.84	211.05
956.14	211.29
956.44	211.29
956.73	210.90
957.03	211.07
957.32	210.86
957.62	210.90
957.92	211.21
958.21	210.79
958.51	213.12
958.81	213.50
959.10	214.02
959.40	214.40
959.69	214.55
959.99	214.60
960.29	214.74
960.58	214.76
960.88	215.76
961.17	215.52
961.47	215.71
961.76	215.57
962.06	215.83
962.36	215.64
962.65	215.74
962.95	216.05
963.24	215.83
963.54	216.02
963.83	216.24
964.13	215.98
964.42	215.76
964.72	214.05
965.01	214.29
965.31	213.93
965.60	213.26
965.90	214.64
966.19	214.36
966.49	214.38
966.78	214.29
967.08	213.67
967.37	213.76
967.67	213.19
967.96	213.40
968.26	213.36
968.55	213.50
968.85	213.60
969.14	213.38
969.43	213.45
969.73	213.33
970.02	213.10
970.32	212.83
970.61	212.62
970.91	211.86
971.20	211.26
971.49	211.14
971.79	211.24
972.08	209.71
972.38	209.79
972.67	209.93
972.96	210.33
973.26	210.14
973.55	210.71
973.85	210.76
974.14	210.50
974.43	210.74
974.73	210.40
975.02	210.24
975.31	210.43
975.61	210.31
975.90	209.88
976.19	209.74
976.49	210.05
976.78	210.19
977.07	210.02
977.37	210.21
977.66	210.55
977.95	210.55
978.24	210.81
978.54	211.17
978.83	210.74
979.12	210.52
979.42	210.67
979.71	209.98
980.00	209.93
980.29	210.17
980.59	209.52
980.88	210.07
981.17	210.00
981.46	209.95
981.76	209.88
982.05	210.76
982.34	210.90
982.63	210.95
982.93	210.86
983.22	211.57
983.51	211.69
983.80	212.00
984.09	212.10
984.39	212.12
984.68	211.88
984.97	212.05
985.26	212.07
985.55	212.21
985.85	212.00
986.14	212.21
986.43	212.48
986.72	212.69
987.01	211.86
987.30	211.98
987.59	211.76
987.89	212.07
988.18	211.38
988.47	211.29
988.76	211.00
989.05	210.98
989.34	210.67
989.63	211.29
989.92	210.74
990.22	210.57
990.51	210.26
990.80	210.31
991.09	210.48
991.38	210.76
991.67	210.64
991.96	210.57
992.25	210.79
992.54	210.14
992.83	209.95
993.12	210.02
993.41	210.14
993.70	211.14
993.99	211.43
994.28	211.76
994.58	211.98
994.87	211.69
995.16	211.69
995.45	211.52
995.74	210.69
996.03	210.98
996.32	211.24
996.61	211.76
996.90	211.60
997.19	211.40
997.48	211.26
997.77	211.10
998.06	211.29
998.34	210.93
998.63	211.29
998.92	211.43
999.21	211.74
999.50	211.83
999.79	211.02
1000.08	211.00
1000.37	210.95
1000.66	210.74
1000.95	211.31
1001.24	211.40
1001.53	211.71
1001.82	211.60
1002.11	211.02
1002.40	211.12
1002.68	211.55
1002.97	212.93
1003.26	212.81
1003.55	212.64
1003.84	212.76
1004.13	213.19
1004.42	213.33
1004.71	213.21
1004.99	213.05
1005.28	213.52
1005.57	213.29
1005.86	213.21
1006.15	212.90
1006.44	212.69
1006.72	212.93
1007.01	212.52
1007.30	212.67
1007.59	212.38
1007.88	212.52
1008.17	212.98
1008.45	212.57
1008.74	211.62
1009.03	210.88
1009.32	210.71
1009.60	210.45
1009.89	210.43
1010.18	209.64
1010.47	209.48
1010.76	209.31
1011.04	209.29
1011.33	211.10
1011.62	211.33
1011.91	211.24
1012.19	211.45
1012.48	211.60
1012.77	211.52
1013.05	212.60
1013.34	212.69
1013.63	212.52
1013.92	212.50
1014.20	212.14
1014.49	212.50
1014.78	212.69
1015.06	211.98
1015.35	212.26
1015.64	212.74
1015.92	212.71
1016.21	213.00
1016.50	212.95
1016.78	213.40
1017.07	213.45
1017.36	211.21
1017.64	210.86
1017.93	211.26
1018.22	210.98
1018.50	210.76
1018.79	210.74
1019.08	209.81
1019.36	209.71
1019.65	209.71
1019.93	210.45
1020.22	210.76
1020.51	211.57
1020.79	211.45
1021.08	208.00
1021.36	207.50
1021.65	210.50
1021.94	209.50
1022.22	211.50
1022.51	208.00
1022.79	222.00
1023.08	211.50
1023.36	233.50
1023.65	206.00
>>>>>End Processed Spectral Data<<<<<
