SpectraSuite Data File
++++++++++++++++++++++++++++++++++++
Date: Tue Apr 02 18:38:13 EDT 2013
User: group
Dark Spectrum Present: No
Reference Spectrum Present: No
Number of Sampled Component Spectra: 1
Spectrometers: USB2E7196
Integration Time (usec): 580000 (USB2E7196)
Spectra Averaged: 2 (USB2E7196)
Boxcar Smoothing: 10 (USB2E7196)
Correct for Electrical Dark: No (USB2E7196)
Strobe/Lamp Enabled: No (USB2E7196)
Correct for Detector Non-linearity: No (USB2E7196)
Correct for Stray Light: No (USB2E7196)
Number of Pixels in Processed Spectrum: 2048
>>>>>Begin Processed Spectral Data<<<<<
339.09	0.00
339.48	195.50
339.86	197.50
340.24	198.00
340.63	202.00
341.01	230.00
341.39	199.50
341.78	206.50
342.16	215.50
342.54	206.00
342.93	198.19
343.31	207.95
343.69	208.36
344.07	208.64
344.46	209.31
344.84	209.67
345.22	208.69
345.60	209.24
345.99	209.48
346.37	209.12
346.75	209.19
347.13	209.17
347.52	209.12
347.90	209.76
348.28	209.83
348.66	210.21
349.05	209.48
349.43	209.81
349.81	209.98
350.19	210.07
350.57	210.21
350.96	210.48
351.34	210.62
351.72	210.79
352.10	210.95
352.48	210.62
352.87	210.50
353.25	210.36
353.63	210.21
354.01	210.10
354.39	210.14
354.77	210.31
355.15	210.81
355.54	210.88
355.92	210.17
356.30	210.12
356.68	211.10
357.06	211.29
357.44	210.90
357.82	210.95
358.20	211.71
358.58	211.86
358.97	211.79
359.35	212.31
359.73	212.60
360.11	212.83
360.49	213.10
360.87	213.19
361.25	213.79
361.63	214.48
362.01	214.60
362.39	214.48
362.77	214.62
363.15	214.55
363.53	214.62
363.91	215.12
364.29	215.05
364.67	213.40
365.05	213.36
365.43	213.64
365.81	213.83
366.19	214.19
366.57	214.74
366.95	214.74
367.33	214.43
367.71	214.67
368.09	214.83
368.47	215.00
368.85	215.07
369.23	215.21
369.61	214.55
369.99	215.12
370.37	215.40
370.75	216.45
371.13	216.07
371.51	215.88
371.89	215.93
372.27	216.10
372.65	216.38
373.03	216.62
373.41	216.60
373.78	216.57
374.16	215.36
374.54	214.83
374.92	214.83
375.30	214.79
375.68	214.45
376.06	214.83
376.44	214.62
376.82	214.83
377.19	214.67
377.57	214.76
377.95	214.31
378.33	214.29
378.71	212.88
379.09	213.33
379.47	213.69
379.84	213.60
380.22	213.26
380.60	212.90
380.98	212.81
381.36	212.69
381.73	212.50
382.11	213.26
382.49	213.21
382.87	213.00
383.25	212.90
383.62	214.98
384.00	214.26
384.38	214.64
384.76	215.31
385.13	216.17
385.51	216.29
385.89	216.05
386.27	216.02
386.64	216.52
387.02	216.26
387.40	215.98
387.78	215.98
388.15	216.10
388.53	216.19
388.91	216.21
389.29	216.14
389.66	216.33
390.04	215.86
390.42	216.33
390.79	216.38
391.17	216.52
391.55	214.62
391.92	214.81
392.30	214.81
392.68	214.17
393.05	213.90
393.43	213.74
393.81	213.88
394.18	213.79
394.56	213.69
394.94	213.95
395.31	213.98
395.69	214.83
396.06	215.38
396.44	215.31
396.82	215.12
397.19	216.29
397.57	216.12
397.95	216.29
398.32	215.81
398.70	216.14
399.07	216.48
399.45	216.19
399.82	216.31
400.20	215.95
400.58	215.74
400.95	215.05
401.33	215.67
401.70	216.95
402.08	217.14
402.45	217.14
402.83	217.74
403.20	217.90
403.58	217.57
403.95	218.02
404.33	218.88
404.71	219.36
405.08	220.45
405.46	220.81
405.83	221.40
406.21	221.95
406.58	222.38
406.96	222.69
407.33	223.55
407.70	224.19
408.08	226.45
408.45	227.71
408.83	228.88
409.20	229.33
409.58	229.33
409.95	230.57
410.33	231.79
410.70	232.50
411.08	234.05
411.45	235.31
411.82	236.02
412.20	237.79
412.57	240.31
412.95	239.98
413.32	242.12
413.69	243.62
414.07	245.33
414.44	247.45
414.82	249.86
415.19	252.60
415.56	255.33
415.94	257.02
416.31	260.12
416.68	263.38
417.06	267.31
417.43	271.10
417.81	275.14
418.18	279.36
418.55	283.79
418.93	288.38
419.30	293.21
419.67	298.86
420.04	303.83
420.42	308.48
420.79	316.19
421.16	322.52
421.54	330.48
421.91	337.88
422.28	345.12
422.66	352.69
423.03	361.71
423.40	369.76
423.77	378.17
424.15	386.17
424.52	395.05
424.89	404.90
425.26	414.17
425.64	423.02
426.01	432.69
426.38	442.90
426.75	454.02
427.13	464.62
427.50	475.60
427.87	487.33
428.24	499.26
428.61	509.83
428.99	523.52
429.36	536.36
429.73	549.71
430.10	563.05
430.47	577.19
430.85	589.74
431.22	604.81
431.59	621.81
431.96	637.57
432.33	654.74
432.70	671.14
433.08	690.48
433.45	708.57
433.82	727.38
434.19	747.98
434.56	767.57
434.93	787.29
435.30	806.26
435.68	827.57
436.05	848.69
436.42	868.86
436.79	887.76
437.16	908.33
437.53	929.95
437.90	952.02
438.27	973.14
438.64	995.21
439.01	1015.71
439.38	1033.57
439.75	1051.95
440.13	1071.98
440.50	1090.45
440.87	1105.69
441.24	1121.88
441.61	1139.29
441.98	1152.19
442.35	1167.45
442.72	1183.07
443.09	1199.26
443.46	1208.81
443.83	1215.40
444.20	1221.83
444.57	1229.50
444.94	1233.90
445.31	1238.52
445.68	1245.17
446.05	1247.26
446.42	1246.48
446.79	1245.40
447.16	1243.17
447.53	1241.98
447.90	1233.98
448.27	1227.12
448.64	1217.05
449.01	1210.07
449.37	1196.67
449.74	1184.02
450.11	1170.10
450.48	1152.17
450.85	1134.02
451.22	1118.60
451.59	1104.62
451.96	1091.19
452.33	1072.29
452.70	1055.29
453.07	1035.33
453.43	1011.81
453.80	992.10
454.17	972.55
454.54	954.33
454.91	934.86
455.28	915.05
455.65	897.69
456.02	883.33
456.38	867.93
456.75	849.52
457.12	833.88
457.49	818.02
457.86	801.76
458.23	789.79
458.59	775.86
458.96	761.98
459.33	748.69
459.70	735.88
460.07	726.31
460.43	714.50
460.80	703.64
461.17	695.21
461.54	685.14
461.91	675.62
462.27	665.19
462.64	656.69
463.01	648.00
463.38	640.24
463.74	627.64
464.11	620.05
464.48	613.40
464.85	606.07
465.21	600.93
465.58	594.50
465.95	586.86
466.32	580.38
466.68	573.88
467.05	568.19
467.42	562.26
467.78	555.38
468.15	549.60
468.52	544.90
468.88	538.24
469.25	533.26
469.62	529.38
469.98	525.12
470.35	521.05
470.72	516.81
471.08	511.88
471.45	508.67
471.82	506.00
472.18	501.60
472.55	498.76
472.92	494.71
473.28	491.12
473.65	487.79
474.02	485.00
474.38	483.02
474.75	480.95
475.11	478.24
475.48	476.71
475.85	474.88
476.21	472.76
476.58	471.50
476.94	469.76
477.31	468.43
477.67	467.21
478.04	466.24
478.41	465.64
478.77	466.93
479.14	465.88
479.50	464.79
479.87	464.43
480.23	464.19
480.60	464.05
480.96	463.98
481.33	465.19
481.69	465.38
482.06	465.38
482.42	465.55
482.79	466.60
483.15	467.07
483.52	468.14
483.88	468.98
484.25	469.98
484.61	471.81
484.98	472.93
485.34	475.26
485.71	477.45
486.07	479.05
486.44	479.21
486.80	481.26
487.17	483.40
487.53	486.74
487.90	489.43
488.26	493.50
488.62	497.24
488.99	499.81
489.35	503.19
489.72	506.67
490.08	510.43
490.44	513.88
490.81	518.19
491.17	522.48
491.54	527.21
491.90	531.83
492.26	536.36
492.63	541.31
492.99	545.64
493.36	550.88
493.72	556.69
494.08	562.14
494.45	568.60
494.81	575.21
495.17	581.31
495.54	588.50
495.90	594.21
496.26	600.86
496.63	607.98
496.99	615.24
497.35	622.81
497.72	630.52
498.08	637.95
498.44	645.67
498.80	653.74
499.17	661.81
499.53	670.10
499.89	679.31
500.26	688.52
500.62	697.12
500.98	705.38
501.34	714.17
501.71	724.02
502.07	733.43
502.43	742.40
502.79	750.69
503.16	759.52
503.52	768.98
503.88	778.60
504.24	788.62
504.60	798.14
504.97	807.88
505.33	817.69
505.69	828.79
506.05	839.05
506.41	848.93
506.78	859.24
507.14	869.48
507.50	879.10
507.86	889.17
508.22	899.88
508.59	910.52
508.95	921.31
509.31	932.05
509.67	942.24
510.03	952.33
510.39	963.07
510.75	972.95
511.12	982.93
511.48	992.64
511.84	1001.64
512.20	1012.10
512.56	1022.07
512.92	1031.57
513.28	1041.36
513.64	1050.95
514.00	1060.90
514.37	1070.67
514.73	1080.05
515.09	1089.86
515.45	1098.79
515.81	1107.26
516.17	1115.83
516.53	1124.00
516.89	1132.43
517.25	1140.36
517.61	1149.19
517.97	1157.90
518.33	1166.71
518.69	1175.76
519.05	1184.26
519.41	1193.40
519.77	1201.95
520.13	1209.40
520.49	1217.07
520.85	1224.05
521.21	1232.10
521.57	1240.00
521.93	1245.83
522.29	1253.07
522.65	1259.19
523.01	1266.14
523.37	1272.71
523.73	1279.29
524.09	1285.93
524.45	1291.24
524.81	1297.36
525.17	1303.83
525.53	1309.17
525.89	1314.69
526.25	1320.10
526.61	1324.74
526.97	1329.00
527.33	1333.64
527.68	1340.17
528.04	1345.29
528.40	1349.76
528.76	1353.36
529.12	1356.64
529.48	1362.45
529.84	1365.83
530.20	1370.07
530.56	1373.60
530.91	1377.17
531.27	1381.24
531.63	1384.67
531.99	1387.71
532.35	1391.29
532.71	1392.88
533.07	1397.02
533.42	1402.64
533.78	1405.57
534.14	1409.76
534.50	1412.81
534.86	1415.88
535.21	1417.00
535.57	1419.31
535.93	1421.83
536.29	1426.07
536.65	1429.67
537.00	1431.29
537.36	1434.14
537.72	1437.05
538.08	1439.50
538.44	1441.26
538.79	1443.19
539.15	1444.50
539.51	1446.55
539.87	1448.05
540.22	1450.88
540.58	1451.88
540.94	1450.45
541.29	1451.33
541.65	1450.98
542.01	1453.24
542.37	1453.64
542.72	1453.90
543.08	1454.45
543.44	1454.62
543.79	1452.67
544.15	1452.40
544.51	1453.10
544.87	1453.38
545.22	1453.10
545.58	1453.86
545.94	1454.36
546.29	1454.26
546.65	1454.43
547.01	1453.90
547.36	1453.50
547.72	1452.52
548.07	1451.95
548.43	1450.98
548.79	1449.64
549.14	1449.55
549.50	1448.17
549.86	1446.38
550.21	1445.98
550.57	1445.33
550.92	1444.17
551.28	1444.05
551.64	1442.36
551.99	1441.07
552.35	1439.19
552.70	1436.45
553.06	1434.38
553.41	1432.95
553.77	1432.36
554.13	1431.14
554.48	1430.43
554.84	1429.83
555.19	1427.95
555.55	1427.60
555.90	1425.95
556.26	1424.52
556.61	1422.26
556.97	1419.74
557.32	1417.60
557.68	1415.52
558.03	1413.21
558.39	1411.33
558.74	1409.19
559.10	1407.62
559.45	1405.74
559.81	1404.40
560.16	1403.24
560.52	1401.00
560.87	1399.45
561.23	1396.64
561.58	1396.50
561.94	1394.71
562.29	1392.07
562.64	1390.69
563.00	1387.64
563.35	1386.26
563.71	1384.83
564.06	1383.60
564.42	1382.10
564.77	1382.21
565.12	1382.81
565.48	1383.52
565.83	1382.52
566.19	1381.52
566.54	1379.74
566.89	1378.05
567.25	1377.62
567.60	1378.12
567.96	1378.52
568.31	1378.05
568.66	1377.12
569.02	1373.29
569.37	1371.12
569.72	1370.67
570.08	1368.74
570.43	1367.36
570.78	1365.00
571.14	1363.43
571.49	1361.05
571.84	1358.98
572.20	1356.19
572.55	1352.74
572.90	1348.57
573.26	1346.07
573.61	1342.95
573.96	1341.60
574.31	1339.31
574.67	1335.14
575.02	1330.90
575.37	1326.00
575.72	1321.79
576.08	1318.29
576.43	1315.90
576.78	1312.71
577.13	1307.60
577.49	1304.48
577.84	1300.79
578.19	1297.95
578.54	1294.31
578.90	1291.50
579.25	1287.95
579.60	1283.55
579.95	1279.86
580.30	1276.00
580.66	1272.24
581.01	1268.55
581.36	1263.45
581.71	1259.05
582.06	1256.50
582.42	1252.86
582.77	1249.83
583.12	1245.95
583.47	1241.38
583.82	1237.76
584.17	1234.21
584.53	1231.86
584.88	1227.60
585.23	1223.64
585.58	1219.26
585.93	1214.48
586.28	1210.02
586.63	1206.12
586.98	1202.36
587.34	1197.93
587.69	1193.81
588.04	1189.74
588.39	1185.21
588.74	1180.05
589.09	1176.45
589.44	1170.05
589.79	1165.21
590.14	1160.02
590.49	1155.19
590.84	1150.45
591.19	1145.14
591.54	1139.45
591.89	1134.29
592.25	1131.50
592.60	1126.45
592.95	1122.79
593.30	1119.05
593.65	1114.17
594.00	1108.93
594.35	1110.83
594.70	1105.50
595.05	1101.55
595.40	1096.81
595.75	1092.19
596.10	1089.02
596.45	1084.26
596.80	1080.98
597.15	1076.95
597.50	1072.48
597.85	1069.40
598.19	1065.40
598.54	1060.60
598.89	1056.36
599.24	1052.67
599.59	1047.10
599.94	1042.67
600.29	1037.90
600.64	1033.17
600.99	1029.95
601.34	1026.79
601.69	1016.29
602.04	1012.26
602.39	1007.24
602.74	1003.52
603.08	999.98
603.43	996.48
603.78	992.19
604.13	986.81
604.48	981.60
604.83	977.60
605.18	972.67
605.53	968.50
605.87	964.55
606.22	961.45
606.57	955.98
606.92	951.31
607.27	947.43
607.62	942.38
607.96	938.02
608.31	933.02
608.66	928.62
609.01	923.60
609.36	919.33
609.70	915.14
610.05	910.74
610.40	906.36
610.75	900.67
611.10	896.14
611.44	891.98
611.79	887.60
612.14	882.95
612.49	877.60
612.83	872.64
613.18	868.43
613.53	863.33
613.88	858.93
614.22	853.81
614.57	848.95
614.92	844.93
615.27	840.52
615.61	835.21
615.96	829.83
616.31	825.57
616.65	821.88
617.00	817.33
617.35	812.67
617.70	807.31
618.04	803.14
618.39	798.17
618.74	794.71
619.08	790.40
619.43	786.40
619.78	782.93
620.12	779.36
620.47	775.12
620.82	770.36
621.16	765.95
621.51	763.57
621.85	759.52
622.20	755.38
622.55	750.93
622.89	747.74
623.24	744.62
623.59	741.10
623.93	737.31
624.28	734.07
624.62	732.95
624.97	731.52
625.32	728.10
625.66	724.45
626.01	720.40
626.35	717.17
626.70	713.14
627.04	709.90
627.39	706.43
627.73	703.60
628.08	700.79
628.43	697.83
628.77	693.62
629.12	690.31
629.46	687.60
629.81	684.98
630.15	681.24
630.50	677.40
630.84	673.86
631.19	669.76
631.53	665.81
631.88	659.48
632.22	654.33
632.57	651.33
632.91	648.29
633.26	645.05
633.60	641.31
633.95	638.10
634.29	634.10
634.64	630.90
634.98	626.95
635.32	624.12
635.67	620.93
636.01	617.88
636.36	614.62
636.70	611.43
637.05	608.10
637.39	605.12
637.73	601.98
638.08	599.62
638.42	596.45
638.77	594.24
639.11	591.33
639.45	588.31
639.80	584.64
640.14	582.00
640.49	578.62
640.83	575.93
641.17	573.45
641.52	570.74
641.86	567.33
642.20	565.52
642.55	561.98
642.89	559.14
643.23	556.21
643.58	553.67
643.92	550.33
644.26	547.33
644.61	545.05
644.95	542.14
645.29	539.00
645.64	536.74
645.98	533.12
646.32	531.12
646.66	528.07
647.01	525.33
647.35	522.50
647.69	520.17
648.04	517.74
648.38	514.95
648.72	511.88
649.06	509.12
649.41	505.45
649.75	502.71
650.09	500.12
650.43	497.19
650.78	494.14
651.12	490.98
651.46	488.40
651.80	485.38
652.14	482.76
652.49	480.43
652.83	477.40
653.17	475.24
653.51	472.07
653.85	469.81
654.20	467.43
654.54	464.50
654.88	461.38
655.22	459.81
655.56	457.33
655.90	455.00
656.25	453.00
656.59	451.12
656.93	448.83
657.27	447.12
657.61	444.64
657.95	443.02
658.29	441.10
658.64	439.29
658.98	437.00
659.32	434.88
659.66	432.57
660.00	430.90
660.34	429.14
660.68	427.05
661.02	424.93
661.36	422.55
661.70	420.83
662.05	419.14
662.39	416.43
662.73	415.10
663.07	414.52
663.41	412.26
663.75	409.62
664.09	407.93
664.43	405.29
664.77	403.38
665.11	401.00
665.45	399.71
665.79	398.10
666.13	396.29
666.47	394.71
666.81	393.14
667.15	391.07
667.49	389.24
667.83	388.38
668.17	387.26
668.51	385.90
668.85	384.60
669.19	384.21
669.53	382.26
669.87	380.12
670.21	377.71
670.55	376.74
670.89	376.21
671.23	375.02
671.57	374.10
671.91	372.88
672.25	371.83
672.58	370.55
672.92	368.40
673.26	367.31
673.60	365.81
673.94	364.45
674.28	363.40
674.62	362.26
674.96	360.57
675.30	359.12
675.64	358.12
675.97	356.64
676.31	354.55
676.65	353.24
676.99	352.74
677.33	351.12
677.67	349.76
678.01	347.86
678.34	346.29
678.68	345.05
679.02	343.62
679.36	341.88
679.70	340.52
680.04	339.43
680.37	338.14
680.71	336.88
681.05	335.79
681.39	334.62
681.73	332.98
682.06	330.95
682.40	329.64
682.74	328.67
683.08	327.98
683.42	326.76
683.75	326.10
684.09	324.36
684.43	323.48
684.77	321.90
685.10	320.88
685.44	319.79
685.78	318.48
686.12	317.76
686.45	317.02
686.79	315.43
687.13	314.88
687.46	313.79
687.80	313.26
688.14	312.14
688.48	311.36
688.81	310.64
689.15	310.57
689.49	309.21
689.82	308.24
690.16	306.86
690.50	305.74
690.83	304.33
691.17	302.81
691.51	302.02
691.84	301.81
692.18	301.05
692.52	300.45
692.85	299.90
693.19	299.40
693.52	298.50
693.86	297.64
694.20	296.81
694.53	296.21
694.87	295.21
695.21	293.93
695.54	292.67
695.88	291.52
696.21	290.29
696.55	290.36
696.88	289.24
697.22	288.45
697.56	287.93
697.89	287.29
698.23	287.17
698.56	286.00
698.90	285.21
699.23	284.45
699.57	283.76
699.90	282.60
700.24	281.12
700.58	280.74
700.91	280.50
701.25	281.26
701.58	281.02
701.92	280.69
702.25	280.38
702.59	279.83
702.92	279.43
703.26	278.88
703.59	277.83
703.93	279.00
704.26	278.62
704.60	278.31
704.93	277.50
705.26	276.62
705.60	276.67
705.93	275.50
706.27	275.55
706.60	275.52
706.94	275.95
707.27	275.43
707.61	274.86
707.94	274.24
708.27	272.29
708.61	270.88
708.94	269.93
709.28	269.36
709.61	268.81
709.94	268.17
710.28	267.55
710.61	266.83
710.95	264.36
711.28	264.88
711.61	264.07
711.95	264.05
712.28	263.50
712.61	262.60
712.95	263.48
713.28	263.40
713.61	262.00
713.95	261.12
714.28	260.71
714.61	259.95
714.95	259.36
715.28	258.55
715.61	258.45
715.95	258.19
716.28	257.55
716.61	257.33
716.95	256.86
717.28	256.50
717.61	256.21
717.94	255.83
718.28	253.93
718.61	253.45
718.94	252.62
719.27	252.14
719.61	251.95
719.94	250.76
720.27	249.43
720.60	249.05
720.94	248.52
721.27	248.24
721.60	248.21
721.93	247.62
722.27	247.90
722.60	247.79
722.93	247.19
723.26	247.05
723.59	246.31
723.93	246.19
724.26	246.02
724.59	245.60
724.92	245.69
725.25	246.07
725.59	245.67
725.92	245.93
726.25	245.57
726.58	245.45
726.91	245.21
727.24	245.00
727.57	244.71
727.91	244.05
728.24	243.93
728.57	243.24
728.90	243.36
729.23	242.21
729.56	242.64
729.89	242.31
730.22	241.93
730.55	241.74
730.89	241.60
731.22	241.19
731.55	241.05
731.88	240.52
732.21	239.86
732.54	239.52
732.87	239.12
733.20	238.90
733.53	238.74
733.86	238.43
734.19	238.33
734.52	238.55
734.85	239.57
735.18	239.00
735.51	239.64
735.84	239.64
736.17	240.21
736.50	238.98
736.83	241.29
737.16	241.07
737.49	240.98
737.82	240.57
738.15	240.67
738.48	240.29
738.81	240.31
739.14	240.10
739.47	239.79
739.80	239.33
740.13	239.64
740.46	239.07
740.79	238.50
741.12	237.98
741.45	237.36
741.78	236.24
742.11	236.98
742.44	236.14
742.77	236.19
743.10	235.48
743.43	235.38
743.75	232.79
744.08	235.07
744.41	234.81
744.74	234.40
745.07	233.71
745.40	233.86
745.73	234.38
746.06	234.07
746.39	234.10
746.71	233.81
747.04	233.14
747.37	232.57
747.70	232.98
748.03	232.76
748.36	233.29
748.68	232.98
749.01	231.90
749.34	231.81
749.67	231.67
750.00	232.10
750.33	233.40
750.65	233.88
750.98	231.50
751.31	231.55
751.64	231.52
751.97	232.57
752.29	232.21
752.62	231.10
752.95	231.00
753.28	230.83
753.60	230.67
753.93	231.02
754.26	231.33
754.59	230.62
754.91	230.45
755.24	229.79
755.57	229.57
755.90	229.60
756.22	229.55
756.55	228.79
756.88	228.12
757.20	226.76
757.53	225.79
757.86	225.64
758.19	225.48
758.51	225.31
758.84	224.14
759.17	223.90
759.49	224.00
759.82	224.81
760.15	224.74
760.47	224.86
760.80	224.19
761.13	224.26
761.45	224.10
761.78	224.10
762.11	224.07
762.43	223.88
762.76	223.62
763.08	223.64
763.41	223.74
763.74	223.74
764.06	223.43
764.39	223.57
764.71	223.31
765.04	223.17
765.37	223.10
765.69	222.95
766.02	222.98
766.34	222.83
766.67	221.86
767.00	222.19
767.32	223.12
767.65	224.17
767.97	224.00
768.30	224.05
768.62	223.81
768.95	223.74
769.27	223.55
769.60	223.74
769.92	223.26
770.25	222.90
770.57	222.43
770.90	222.17
771.22	221.76
771.55	221.88
771.87	221.74
772.20	221.62
772.52	223.40
772.85	225.67
773.17	225.43
773.50	225.52
773.82	225.31
774.15	224.26
774.47	222.90
774.80	222.76
775.12	222.64
775.45	222.76
775.77	222.43
776.09	222.98
776.42	222.90
776.74	223.45
777.07	223.31
777.39	223.55
777.72	223.19
778.04	223.29
778.36	222.88
778.69	223.10
779.01	223.29
779.33	221.40
779.66	218.71
779.98	218.69
780.31	218.81
780.63	219.31
780.95	219.48
781.28	219.50
781.60	219.26
781.92	219.31
782.25	219.26
782.57	219.29
782.89	218.69
783.22	218.69
783.54	218.07
783.86	218.45
784.19	218.19
784.51	219.12
784.83	219.00
785.16	219.21
785.48	218.88
785.80	218.60
786.12	218.64
786.45	219.00
786.77	218.98
787.09	218.50
787.42	217.98
787.74	218.07
788.06	218.19
788.38	218.19
788.71	217.88
789.03	217.69
789.35	218.17
789.67	217.95
789.99	217.86
790.32	217.67
790.64	217.83
790.96	219.50
791.28	218.79
791.61	218.86
791.93	218.76
792.25	218.79
792.57	220.52
792.89	220.12
793.21	220.10
793.54	219.64
793.86	219.55
794.18	219.67
794.50	219.07
794.82	218.95
795.14	219.10
795.47	219.52
795.79	219.62
796.11	218.93
796.43	219.12
796.75	219.05
797.07	219.05
797.39	218.90
797.71	217.52
798.04	217.57
798.36	217.57
798.68	217.57
799.00	217.62
799.32	216.26
799.64	216.90
799.96	216.98
800.28	217.57
800.60	217.45
800.92	217.38
801.24	217.45
801.56	217.55
801.89	217.38
802.21	217.48
802.53	217.24
802.85	217.83
803.17	218.74
803.49	218.45
803.81	218.36
804.13	218.24
804.45	217.86
804.77	217.86
805.09	217.79
805.41	217.40
805.73	217.10
806.05	216.71
806.37	216.43
806.69	216.31
807.01	216.21
807.33	216.40
807.65	215.69
807.97	216.64
808.28	216.48
808.60	216.29
808.92	215.93
809.24	217.33
809.56	216.98
809.88	215.98
810.20	216.10
810.52	216.21
810.84	215.79
811.16	215.81
811.48	215.57
811.80	216.43
812.12	216.50
812.43	216.88
812.75	217.00
813.07	216.81
813.39	216.76
813.71	216.50
814.03	216.36
814.35	216.50
814.67	215.57
814.98	215.45
815.30	215.60
815.62	215.31
815.94	213.74
816.26	213.67
816.58	213.31
816.89	213.45
817.21	213.33
817.53	213.71
817.85	213.55
818.17	213.74
818.48	212.71
818.80	212.90
819.12	212.55
819.44	212.07
819.76	211.74
820.07	211.88
820.39	211.60
820.71	211.83
821.03	211.95
821.34	211.83
821.66	212.21
821.98	212.43
822.30	212.48
822.61	213.52
822.93	213.40
823.25	213.62
823.57	213.45
823.88	213.88
824.20	213.74
824.52	214.31
824.83	214.17
825.15	213.93
825.47	213.95
825.79	214.36
826.10	214.45
826.42	214.52
826.74	214.76
827.05	214.95
827.37	215.00
827.69	214.83
828.00	214.88
828.32	214.79
828.64	214.43
828.95	215.48
829.27	215.12
829.58	215.29
829.90	215.81
830.22	216.12
830.53	215.64
830.85	215.52
831.17	214.69
831.48	214.79
831.80	215.10
832.11	215.17
832.43	214.81
832.75	214.76
833.06	216.19
833.38	215.43
833.69	215.55
834.01	215.43
834.32	215.36
834.64	215.21
834.96	215.21
835.27	215.26
835.59	214.52
835.90	214.14
836.22	214.00
836.53	213.48
836.85	213.10
837.16	215.02
837.48	214.74
837.79	215.74
838.11	215.69
838.42	215.64
838.74	215.79
839.05	215.43
839.37	215.62
839.68	214.36
840.00	214.33
840.31	214.50
840.63	214.40
840.94	214.31
841.26	214.21
841.57	214.26
841.88	214.36
842.20	213.98
842.51	213.67
842.83	213.88
843.14	215.79
843.46	215.81
843.77	215.05
844.08	215.21
844.40	214.52
844.71	214.48
845.03	214.17
845.34	213.90
845.65	214.10
845.97	213.95
846.28	213.93
846.60	214.10
846.91	213.79
847.22	214.00
847.54	214.45
847.85	214.50
848.16	214.29
848.48	214.07
848.79	215.26
849.10	215.69
849.42	215.79
849.73	213.69
850.04	213.74
850.36	212.81
850.67	213.19
850.98	213.40
851.30	213.67
851.61	213.76
851.92	213.64
852.23	214.14
852.55	214.21
852.86	214.19
853.17	214.52
853.49	214.95
853.80	215.26
854.11	215.57
854.42	215.98
854.74	215.86
855.05	216.00
855.36	214.69
855.67	214.76
855.99	214.40
856.30	216.90
856.61	216.93
856.92	216.98
857.23	216.81
857.55	216.40
857.86	216.12
858.17	216.52
858.48	216.48
858.79	216.29
859.11	216.60
859.42	216.57
859.73	216.26
860.04	216.02
860.35	215.26
860.66	214.64
860.98	214.45
861.29	214.64
861.60	214.14
861.91	214.64
862.22	214.14
862.53	214.12
862.84	211.74
863.16	212.19
863.47	211.83
863.78	211.86
864.09	212.12
864.40	212.21
864.71	212.36
865.02	212.71
865.33	212.24
865.64	211.81
865.95	211.81
866.27	213.17
866.58	212.95
866.89	213.24
867.20	212.98
867.51	212.71
867.82	212.55
868.13	213.40
868.44	212.95
868.75	213.64
869.06	213.98
869.37	214.17
869.68	213.33
869.99	213.74
870.30	214.00
870.61	214.10
870.92	213.81
871.23	213.26
871.54	213.55
871.85	214.14
872.16	214.38
872.47	214.24
872.78	212.81
873.09	213.07
873.40	213.05
873.71	213.33
874.02	213.86
874.33	213.64
874.64	213.31
874.95	213.83
875.26	213.14
875.56	212.76
875.87	212.67
876.18	212.62
876.49	214.45
876.80	214.14
877.11	213.76
877.42	213.62
877.73	213.86
878.04	213.31
878.35	213.40
878.66	213.52
878.96	213.60
879.27	213.74
879.58	213.69
879.89	213.43
880.20	213.90
880.51	213.38
880.82	213.64
881.12	213.69
881.43	213.14
881.74	213.21
882.05	213.10
882.36	213.33
882.67	213.55
882.97	211.33
883.28	211.17
883.59	211.17
883.90	211.67
884.21	211.90
884.51	211.83
884.82	211.29
885.13	211.12
885.44	211.00
885.74	210.90
886.05	210.90
886.36	211.05
886.67	210.33
886.98	211.43
887.28	211.48
887.59	211.52
887.90	211.74
888.20	211.50
888.51	212.17
888.82	211.67
889.13	211.79
889.43	213.55
889.74	213.36
890.05	213.31
890.35	213.26
890.66	212.98
890.97	212.88
891.28	212.76
891.58	212.98
891.89	213.05
892.20	212.90
892.50	212.67
892.81	212.67
893.12	212.71
893.42	211.79
893.73	211.93
894.04	211.83
894.34	211.90
894.65	211.81
894.95	211.40
895.26	211.67
895.57	212.50
895.87	210.67
896.18	211.12
896.48	211.26
896.79	211.00
897.10	211.48
897.40	211.52
897.71	211.86
898.01	211.64
898.32	211.79
898.63	211.71
898.93	212.17
899.24	211.93
899.54	211.95
899.85	211.86
900.15	211.74
900.46	211.76
900.76	211.98
901.07	212.07
901.38	212.07
901.68	212.24
901.99	211.29
902.29	211.43
902.60	211.12
902.90	211.05
903.21	211.19
903.51	210.81
903.82	211.29
904.12	211.40
904.43	211.57
904.73	211.40
905.03	211.71
905.34	213.29
905.64	213.19
905.95	213.14
906.25	213.36
906.56	213.33
906.86	213.24
907.17	213.19
907.47	213.21
907.77	212.93
908.08	212.52
908.38	212.71
908.69	212.98
908.99	213.33
909.30	213.40
909.60	213.26
909.90	213.57
910.21	212.95
910.51	212.50
910.81	212.29
911.12	212.52
911.42	212.24
911.73	210.43
912.03	210.74
912.33	211.12
912.64	210.98
912.94	210.67
913.24	210.36
913.55	210.12
913.85	210.19
914.15	210.81
914.46	211.00
914.76	210.98
915.06	210.74
915.37	210.48
915.67	210.36
915.97	210.48
916.27	209.90
916.58	209.86
916.88	210.05
917.18	210.24
917.49	211.60
917.79	211.71
918.09	211.64
918.39	211.90
918.70	211.86
919.00	211.88
919.30	213.55
919.60	213.79
919.91	213.52
920.21	213.64
920.51	213.02
920.81	212.88
921.12	213.29
921.42	213.29
921.72	213.67
922.02	213.79
922.32	214.12
922.63	214.33
922.93	215.43
923.23	215.36
923.53	214.90
923.83	213.36
924.13	213.69
924.44	213.79
924.74	214.43
925.04	214.86
925.34	214.52
925.64	213.14
925.94	212.95
926.24	214.17
926.55	213.83
926.85	214.24
927.15	214.45
927.45	214.26
927.75	214.33
928.05	214.33
928.35	214.24
928.65	214.52
928.95	214.62
929.26	214.00
929.56	214.38
929.86	214.76
930.16	214.93
930.46	214.38
930.76	214.43
931.06	213.43
931.36	212.69
931.66	213.14
931.96	213.19
932.26	213.43
932.56	212.60
932.86	212.76
933.16	212.67
933.46	212.45
933.76	212.14
934.06	212.60
934.36	213.02
934.66	213.10
934.96	212.76
935.26	212.76
935.56	212.95
935.86	212.57
936.16	212.24
936.46	211.98
936.76	212.07
937.06	211.74
937.36	211.71
937.66	212.14
937.96	211.90
938.26	211.69
938.56	211.43
938.86	211.52
939.16	211.95
939.46	212.05
939.76	212.00
940.06	211.95
940.35	211.29
940.65	210.33
940.95	210.57
941.25	210.10
941.55	209.69
941.85	209.50
942.15	209.81
942.45	210.33
942.75	210.33
943.04	210.45
943.34	210.95
943.64	211.14
943.94	210.69
944.24	210.88
944.54	211.07
944.84	211.17
945.13	210.95
945.43	210.69
945.73	210.55
946.03	210.26
946.33	210.19
946.62	210.24
946.92	210.21
947.22	210.17
947.52	210.21
947.82	210.79
948.11	210.67
948.41	210.19
948.71	209.60
949.01	209.76
949.31	209.60
949.60	209.29
949.90	209.43
950.20	209.29
950.50	209.14
950.79	208.95
951.09	209.31
951.39	209.31
951.69	209.24
951.98	209.71
952.28	210.14
952.58	210.10
952.87	210.05
953.17	210.38
953.47	210.21
953.76	210.36
954.06	210.07
954.36	209.62
954.66	209.74
954.95	210.40
955.25	210.50
955.55	210.60
955.84	210.45
956.14	210.33
956.44	210.45
956.73	210.48
957.03	210.48
957.32	210.26
957.62	210.12
957.92	210.40
958.21	210.29
958.51	212.43
958.81	212.81
959.10	213.07
959.40	213.45
959.69	213.48
959.99	213.90
960.29	213.79
960.58	214.07
960.88	214.64
961.17	214.19
961.47	214.24
961.76	213.83
962.06	214.38
962.36	214.33
962.65	214.43
962.95	214.31
963.24	214.24
963.54	214.38
963.83	214.52
964.13	214.36
964.42	214.02
964.72	212.40
965.01	212.26
965.31	212.24
965.60	211.50
965.90	212.83
966.19	212.21
966.49	212.45
966.78	212.45
967.08	212.40
967.37	212.60
967.67	212.36
967.96	213.05
968.26	212.69
968.55	213.02
968.85	212.95
969.14	213.36
969.43	213.19
969.73	212.81
970.02	212.57
970.32	212.38
970.61	212.07
970.91	211.50
971.20	211.02
971.49	210.93
971.79	211.24
972.08	209.93
972.38	210.07
972.67	209.81
972.96	209.86
973.26	209.52
973.55	209.93
973.85	209.88
974.14	209.88
974.43	209.95
974.73	209.62
975.02	209.55
975.31	209.36
975.61	209.48
975.90	209.26
976.19	209.33
976.49	209.50
976.78	209.69
977.07	209.57
977.37	209.88
977.66	209.93
977.95	209.83
978.24	210.05
978.54	210.40
978.83	210.12
979.12	210.07
979.42	210.10
979.71	209.81
980.00	209.83
980.29	209.74
980.59	209.64
980.88	210.10
981.17	210.12
981.46	210.29
981.76	210.33
982.05	211.40
982.34	211.57
982.63	211.67
982.93	211.76
983.22	212.50
983.51	212.55
983.80	212.71
984.09	212.98
984.39	212.81
984.68	212.55
984.97	212.93
985.26	212.57
985.55	212.64
985.85	212.21
986.14	212.40
986.43	212.40
986.72	212.26
987.01	211.74
987.30	211.81
987.59	211.33
987.89	211.33
988.18	210.50
988.47	210.43
988.76	210.02
989.05	209.83
989.34	209.43
989.63	210.07
989.92	209.64
990.22	209.40
990.51	209.26
990.80	209.17
991.09	209.24
991.38	209.64
991.67	209.38
991.96	209.36
992.25	209.29
992.54	209.21
992.83	209.26
993.12	209.10
993.41	209.33
993.70	210.24
993.99	210.62
994.28	211.00
994.58	210.98
994.87	211.19
995.16	211.14
995.45	210.86
995.74	209.90
996.03	210.40
996.32	210.69
996.61	211.19
996.90	211.19
997.19	211.12
997.48	211.33
997.77	211.33
998.06	211.69
998.34	211.67
998.63	211.69
998.92	211.81
999.21	212.19
999.50	212.19
999.79	211.50
1000.08	211.45
1000.37	211.33
1000.66	211.40
1000.95	211.95
1001.24	212.10
1001.53	212.60
1001.82	212.83
1002.11	212.24
1002.40	212.50
1002.68	212.88
1002.97	214.21
1003.26	213.98
1003.55	213.67
1003.84	213.69
1004.13	214.17
1004.42	214.10
1004.71	213.88
1004.99	213.69
1005.28	214.10
1005.57	214.05
1005.86	214.02
1006.15	213.90
1006.44	213.81
1006.72	213.95
1007.01	213.55
1007.30	213.57
1007.59	213.24
1007.88	213.10
1008.17	213.40
1008.45	212.74
1008.74	211.76
1009.03	210.76
1009.32	210.64
1009.60	210.52
1009.89	210.45
1010.18	209.64
1010.47	209.79
1010.76	209.93
1011.04	209.83
1011.33	210.43
1011.62	210.38
1011.91	210.36
1012.19	210.29
1012.48	210.26
1012.77	210.07
1013.05	211.07
1013.34	211.12
1013.63	211.00
1013.92	211.36
1014.20	211.17
1014.49	211.29
1014.78	211.52
1015.06	210.93
1015.35	211.02
1015.64	211.38
1015.92	211.69
1016.21	211.86
1016.50	211.52
1016.78	211.76
1017.07	211.95
1017.36	210.95
1017.64	210.90
1017.93	211.12
1018.22	210.93
1018.50	210.74
1018.79	210.81
1019.08	209.69
1019.36	209.71
1019.65	209.67
1019.93	209.98
1020.22	210.24
1020.51	211.36
1020.79	211.24
1021.08	206.00
1021.36	205.00
1021.65	211.50
1021.94	210.00
1022.22	211.00
1022.51	207.50
1022.79	218.50
1023.08	212.00
1023.36	235.00
1023.65	207.50
>>>>>End Processed Spectral Data<<<<<
