SpectraSuite Data File
++++++++++++++++++++++++++++++++++++
Date: Tue Apr 02 18:46:40 EDT 2013
User: group
Dark Spectrum Present: No
Reference Spectrum Present: No
Number of Sampled Component Spectra: 1
Spectrometers: USB2E7196
Integration Time (usec): 580000 (USB2E7196)
Spectra Averaged: 2 (USB2E7196)
Boxcar Smoothing: 10 (USB2E7196)
Correct for Electrical Dark: No (USB2E7196)
Strobe/Lamp Enabled: No (USB2E7196)
Correct for Detector Non-linearity: No (USB2E7196)
Correct for Stray Light: No (USB2E7196)
Number of Pixels in Processed Spectrum: 2048
>>>>>Begin Processed Spectral Data<<<<<
339.09	0.00
339.48	194.00
339.86	192.50
340.24	197.50
340.63	200.50
341.01	229.00
341.39	198.50
341.78	203.50
342.16	211.00
342.54	204.50
342.93	197.57
343.31	207.31
343.69	207.95
344.07	208.57
344.46	209.45
344.84	210.02
345.22	208.88
345.60	209.29
345.99	209.64
346.37	209.64
346.75	209.71
347.13	210.02
347.52	210.26
347.90	211.12
348.28	211.10
348.66	211.48
349.05	210.55
349.43	210.67
349.81	210.83
350.19	211.02
350.57	211.02
350.96	211.24
351.34	211.74
351.72	211.88
352.10	212.12
352.48	211.74
352.87	211.67
353.25	211.74
353.63	211.74
354.01	211.95
354.39	212.07
354.77	212.36
355.15	212.83
355.54	212.64
355.92	211.86
356.30	211.98
356.68	213.19
357.06	213.64
357.44	213.19
357.82	213.05
358.20	214.07
358.58	214.00
358.97	214.05
359.35	214.14
359.73	214.60
360.11	214.62
360.49	214.74
360.87	214.81
361.25	215.31
361.63	216.05
362.01	216.07
362.39	215.90
362.77	216.10
363.15	215.98
363.53	216.17
363.91	216.43
364.29	216.48
364.67	214.67
365.05	214.93
365.43	215.52
365.81	215.90
366.19	215.90
366.57	216.86
366.95	216.83
367.33	216.55
367.71	216.26
368.09	216.38
368.47	216.43
368.85	216.33
369.23	216.76
369.61	216.12
369.99	216.62
370.37	216.86
370.75	217.50
371.13	217.14
371.51	216.83
371.89	216.88
372.27	217.00
372.65	217.19
373.03	217.00
373.41	216.45
373.78	216.24
374.16	215.29
374.54	214.43
374.92	214.24
375.30	214.07
375.68	213.81
376.06	213.95
376.44	213.79
376.82	213.88
377.19	213.50
377.57	213.43
377.95	212.79
378.33	212.57
378.71	211.40
379.09	211.55
379.47	211.69
379.84	211.33
380.22	211.02
380.60	210.55
380.98	210.48
381.36	210.71
381.73	210.36
382.11	210.71
382.49	211.19
382.87	211.05
383.25	211.50
383.62	214.12
384.00	213.88
384.38	214.07
384.76	214.19
385.13	215.17
385.51	215.19
385.89	214.83
386.27	215.10
386.64	215.40
387.02	215.38
387.40	215.31
387.78	215.45
388.15	215.71
388.53	215.81
388.91	215.93
389.29	215.86
389.66	216.38
390.04	216.24
390.42	216.38
390.79	216.48
391.17	216.29
391.55	214.10
391.92	214.21
392.30	214.45
392.68	214.45
393.05	214.05
393.43	214.21
393.81	214.71
394.18	214.29
394.56	214.33
394.94	214.69
395.31	214.48
395.69	215.33
396.06	215.62
396.44	215.95
396.82	215.48
397.19	216.40
397.57	216.43
397.95	216.79
398.32	216.19
398.70	216.43
399.07	216.79
399.45	216.60
399.82	216.55
400.20	216.19
400.58	216.02
400.95	215.31
401.33	215.60
401.70	216.79
402.08	217.12
402.45	217.29
402.83	218.12
403.20	218.48
403.58	218.40
403.95	218.74
404.33	219.05
404.71	219.69
405.08	220.98
405.46	221.02
405.83	221.19
406.21	221.64
406.58	222.19
406.96	222.43
407.33	222.90
407.70	223.40
408.08	225.83
408.45	226.86
408.83	227.83
409.20	228.50
409.58	228.07
409.95	229.24
410.33	230.43
410.70	230.64
411.08	231.90
411.45	232.67
411.82	233.43
412.20	234.98
412.57	237.43
412.95	237.00
413.32	238.86
413.69	240.43
414.07	241.79
414.44	243.38
414.82	245.36
415.19	247.81
415.56	250.12
415.94	251.10
416.31	253.83
416.68	256.69
417.06	260.00
417.43	263.29
417.81	266.57
418.18	270.07
418.55	273.50
418.93	277.33
419.30	281.55
419.67	286.00
420.04	289.90
420.42	294.00
420.79	300.88
421.16	306.33
421.54	313.24
421.91	319.79
422.28	325.93
422.66	332.57
423.03	340.24
423.40	347.05
423.77	354.17
424.15	361.38
424.52	369.17
424.89	377.52
425.26	385.21
425.64	392.83
426.01	401.26
426.38	410.00
426.75	419.29
427.13	428.52
427.50	437.93
427.87	447.98
428.24	458.02
428.61	466.43
428.99	478.07
429.36	488.21
429.73	498.90
430.10	510.24
430.47	522.02
430.85	532.02
431.22	544.48
431.59	559.52
431.96	572.00
432.33	585.95
432.70	599.45
433.08	615.67
433.45	630.90
433.82	645.62
434.19	662.74
434.56	679.67
434.93	695.36
435.30	711.36
435.68	728.93
436.05	745.81
436.42	762.29
436.79	777.24
437.16	794.43
437.53	812.86
437.90	830.88
438.27	848.74
438.64	867.07
439.01	884.19
439.38	897.38
439.75	911.76
440.13	928.02
440.50	943.69
440.87	956.64
441.24	969.93
441.61	984.60
441.98	995.24
442.35	1006.57
442.72	1019.05
443.09	1032.57
443.46	1039.81
443.83	1045.43
444.20	1050.21
444.57	1056.43
444.94	1059.21
445.31	1061.98
445.68	1067.17
446.05	1068.19
446.42	1067.40
446.79	1066.17
447.16	1064.02
447.53	1063.07
447.90	1056.93
448.27	1050.36
448.64	1041.24
449.01	1035.00
449.37	1024.07
449.74	1013.62
450.11	1002.69
450.48	988.19
450.85	971.79
451.22	959.95
451.59	947.74
451.96	936.24
452.33	921.00
452.70	907.14
453.07	890.05
453.43	870.57
453.80	854.05
454.17	838.50
454.54	822.81
454.91	807.17
455.28	791.45
455.65	776.48
456.02	765.55
456.38	753.14
456.75	737.74
457.12	724.33
457.49	710.90
457.86	696.62
458.23	687.02
458.59	676.19
458.96	664.38
459.33	653.98
459.70	643.95
460.07	635.55
460.43	626.10
460.80	618.26
461.17	611.31
461.54	603.07
461.91	594.79
462.27	586.71
462.64	580.12
463.01	572.76
463.38	566.43
463.74	555.64
464.11	549.19
464.48	543.57
464.85	537.69
465.21	533.81
465.58	529.17
465.95	522.33
466.32	516.90
466.68	511.43
467.05	505.90
467.42	501.07
467.78	495.83
468.15	490.76
468.52	487.07
468.88	481.26
469.25	476.43
469.62	473.19
469.98	469.93
470.35	466.19
470.72	462.55
471.08	458.31
471.45	455.31
471.82	452.62
472.18	449.07
472.55	446.71
472.92	442.67
473.28	439.76
473.65	437.21
474.02	434.69
474.38	432.86
474.75	431.40
475.11	428.79
475.48	427.19
475.85	425.69
476.21	423.31
476.58	422.17
476.94	421.26
477.31	419.62
477.67	417.98
478.04	416.76
478.41	416.10
478.77	417.33
479.14	416.24
479.50	415.31
479.87	414.79
480.23	413.83
480.60	413.43
480.96	413.10
481.33	414.19
481.69	414.10
482.06	414.31
482.42	414.83
482.79	415.62
483.15	415.57
483.52	416.64
483.88	417.02
484.25	417.60
484.61	418.40
484.98	419.40
485.34	421.26
485.71	423.07
486.07	424.21
486.44	423.67
486.80	425.45
487.17	426.88
487.53	429.45
487.90	432.33
488.26	435.76
488.62	438.64
488.99	439.79
489.35	442.83
489.72	445.24
490.08	447.57
490.44	450.17
490.81	453.90
491.17	456.71
491.54	460.60
491.90	464.36
492.26	467.74
492.63	471.48
492.99	474.62
493.36	478.21
493.72	483.14
494.08	487.62
494.45	492.24
494.81	497.79
495.17	502.24
495.54	507.36
495.90	511.60
496.26	516.74
496.63	523.02
496.99	528.21
497.35	533.86
497.72	539.74
498.08	545.50
498.44	551.67
498.80	558.07
499.17	564.21
499.53	570.40
499.89	577.76
500.26	584.38
500.62	591.31
500.98	598.86
501.34	605.62
501.71	612.50
502.07	619.12
502.43	625.43
502.79	632.21
503.16	638.50
503.52	645.69
503.88	652.48
504.24	659.81
504.60	667.33
504.97	675.45
505.33	683.07
505.69	692.17
506.05	699.50
506.41	707.10
506.78	714.50
507.14	722.48
507.50	729.88
507.86	737.83
508.22	746.17
508.59	753.50
508.95	761.52
509.31	770.88
509.67	779.02
510.03	786.93
510.39	795.02
510.75	803.10
511.12	810.81
511.48	818.67
511.84	826.33
512.20	834.21
512.56	841.45
512.92	848.93
513.28	855.26
513.64	862.33
514.00	870.02
514.37	877.81
514.73	884.79
515.09	892.17
515.45	898.86
515.81	905.69
516.17	912.48
516.53	918.24
516.89	923.74
517.25	930.50
517.61	937.76
517.97	944.45
518.33	950.38
518.69	957.40
519.05	963.81
519.41	970.17
519.77	976.98
520.13	982.83
520.49	988.52
520.85	994.52
521.21	1001.24
521.57	1006.29
521.93	1011.55
522.29	1017.10
522.65	1022.21
523.01	1027.50
523.37	1032.14
523.73	1037.43
524.09	1042.86
524.45	1047.38
524.81	1052.02
525.17	1056.86
525.53	1061.62
525.89	1066.29
526.25	1071.02
526.61	1075.10
526.97	1078.43
527.33	1082.88
527.68	1089.05
528.04	1093.76
528.40	1097.98
528.76	1101.62
529.12	1106.36
529.48	1111.26
529.84	1115.02
530.20	1119.71
530.56	1124.67
530.91	1128.90
531.27	1133.24
531.63	1137.26
531.99	1141.12
532.35	1144.95
532.71	1148.98
533.07	1152.90
533.42	1159.67
533.78	1163.64
534.14	1168.60
534.50	1172.29
534.86	1176.45
535.21	1178.79
535.57	1183.00
535.93	1186.83
536.29	1191.71
536.65	1196.31
537.00	1199.40
537.36	1203.64
537.72	1206.81
538.08	1209.38
538.44	1212.29
538.79	1214.86
539.15	1218.02
539.51	1222.40
539.87	1225.90
540.22	1229.40
540.58	1232.79
540.94	1234.17
541.29	1236.95
541.65	1238.79
542.01	1242.43
542.37	1244.26
542.72	1246.14
543.08	1248.17
543.44	1250.76
543.79	1251.57
544.15	1253.29
544.51	1257.12
544.87	1259.36
545.22	1261.90
545.58	1265.60
545.94	1268.52
546.29	1271.36
546.65	1274.48
547.01	1276.69
547.36	1278.79
547.72	1280.24
548.07	1282.45
548.43	1284.17
548.79	1285.81
549.14	1288.31
549.50	1291.69
549.86	1293.62
550.21	1296.76
550.57	1299.26
550.92	1302.07
551.28	1305.57
551.64	1308.62
551.99	1310.57
552.35	1314.02
552.70	1316.62
553.06	1318.71
553.41	1322.05
553.77	1326.74
554.13	1329.36
554.48	1332.93
554.84	1338.05
555.19	1342.12
555.55	1347.10
555.90	1350.57
556.26	1355.88
556.61	1359.74
556.97	1362.07
557.32	1366.57
557.68	1370.36
558.03	1374.43
558.39	1377.71
558.74	1381.83
559.10	1385.74
559.45	1390.79
559.81	1394.50
560.16	1399.00
560.52	1403.95
560.87	1407.95
561.23	1410.76
561.58	1417.62
561.94	1421.83
562.29	1425.38
562.64	1429.64
563.00	1432.38
563.35	1437.33
563.71	1441.26
564.06	1446.81
564.42	1452.57
564.77	1457.64
565.12	1463.33
565.48	1470.95
565.83	1476.69
566.19	1481.64
566.54	1486.02
566.89	1490.05
567.25	1496.19
567.60	1503.07
567.96	1509.60
568.31	1516.69
568.66	1523.19
569.02	1526.86
569.37	1532.02
569.72	1537.14
570.08	1542.29
570.43	1547.74
570.78	1553.55
571.14	1559.17
571.49	1563.29
571.84	1568.12
572.20	1573.29
572.55	1577.88
572.90	1579.98
573.26	1584.74
573.61	1589.38
573.96	1595.29
574.31	1600.24
574.67	1604.12
575.02	1606.62
575.37	1609.17
575.72	1611.38
576.08	1614.95
576.43	1618.76
576.78	1622.19
577.13	1625.98
577.49	1630.17
577.84	1635.17
578.19	1639.21
578.54	1642.76
578.90	1648.26
579.25	1651.83
579.60	1654.90
579.95	1658.55
580.30	1662.90
580.66	1667.88
581.01	1671.98
581.36	1674.64
581.71	1678.05
582.06	1683.31
582.42	1687.45
582.77	1690.62
583.12	1694.93
583.47	1698.36
583.82	1701.45
584.17	1705.00
584.53	1709.17
584.88	1712.02
585.23	1715.55
585.58	1717.52
585.93	1720.79
586.28	1722.74
586.63	1726.05
586.98	1729.17
587.34	1732.57
587.69	1735.14
588.04	1736.98
588.39	1740.07
588.74	1742.26
589.09	1744.55
589.44	1745.26
589.79	1747.31
590.14	1750.24
590.49	1751.88
590.84	1753.24
591.19	1755.24
591.54	1757.12
591.89	1758.26
592.25	1761.67
592.60	1762.12
592.95	1765.17
593.30	1767.14
593.65	1768.83
594.00	1769.55
594.35	1776.48
594.70	1777.31
595.05	1779.19
595.40	1779.40
595.75	1778.69
596.10	1780.17
596.45	1781.55
596.80	1783.05
597.15	1784.50
597.50	1784.05
597.85	1785.00
598.19	1785.93
598.54	1787.45
598.89	1788.19
599.24	1789.71
599.59	1789.17
599.94	1789.64
600.29	1788.88
600.64	1787.79
600.99	1787.95
601.34	1788.83
601.69	1783.48
602.04	1783.43
602.39	1782.14
602.74	1783.43
603.08	1783.93
603.43	1785.05
603.78	1784.81
604.13	1783.88
604.48	1782.24
604.83	1782.95
605.18	1783.52
605.53	1783.24
605.87	1781.71
606.22	1780.98
606.57	1778.90
606.92	1778.10
607.27	1776.52
607.62	1776.52
607.96	1777.07
608.31	1776.62
608.66	1775.19
609.01	1773.21
609.36	1771.93
609.70	1771.12
610.05	1768.21
610.40	1767.21
610.75	1764.62
611.10	1762.98
611.44	1760.14
611.79	1759.19
612.14	1757.26
612.49	1753.76
612.83	1752.36
613.18	1749.43
613.53	1747.24
613.88	1744.24
614.22	1740.88
614.57	1737.38
614.92	1733.74
615.27	1729.93
615.61	1725.67
615.96	1722.52
616.31	1719.88
616.65	1717.24
617.00	1713.93
617.35	1711.86
617.70	1708.33
618.04	1704.33
618.39	1700.88
618.74	1698.24
619.08	1694.02
619.43	1690.93
619.78	1688.07
620.12	1683.55
620.47	1680.90
620.82	1675.90
621.16	1672.19
621.51	1669.31
621.85	1665.79
622.20	1661.60
622.55	1657.14
622.89	1654.07
623.24	1651.62
623.59	1648.19
623.93	1643.57
624.28	1639.88
624.62	1637.07
624.97	1634.50
625.32	1630.33
625.66	1625.40
626.01	1621.24
626.35	1618.55
626.70	1613.43
627.04	1609.98
627.39	1604.74
627.73	1601.10
628.08	1598.12
628.43	1594.79
628.77	1590.69
629.12	1588.60
629.46	1586.02
629.81	1582.24
630.15	1576.71
630.50	1571.14
630.84	1565.95
631.19	1561.40
631.53	1556.45
631.88	1549.55
632.22	1542.93
632.57	1539.93
632.91	1535.36
633.26	1531.10
633.60	1525.12
633.95	1520.29
634.29	1514.45
634.64	1511.31
634.98	1505.69
635.32	1501.83
635.67	1498.12
636.01	1493.36
636.36	1488.21
636.70	1483.00
637.05	1479.12
637.39	1475.43
637.73	1471.24
638.08	1467.81
638.42	1463.50
638.77	1459.43
639.11	1455.55
639.45	1451.57
639.80	1445.79
640.14	1442.10
640.49	1437.40
640.83	1432.12
641.17	1427.79
641.52	1422.90
641.86	1417.90
642.20	1415.17
642.55	1409.40
642.89	1403.71
643.23	1398.12
643.58	1392.88
643.92	1386.93
644.26	1380.43
644.61	1376.33
644.95	1370.60
645.29	1363.93
645.64	1359.19
645.98	1353.90
646.32	1348.64
646.66	1342.60
647.01	1336.57
647.35	1330.29
647.69	1323.86
648.04	1319.81
648.38	1314.14
648.72	1308.60
649.06	1302.52
649.41	1294.38
649.75	1288.00
650.09	1281.95
650.43	1275.86
650.78	1269.31
651.12	1263.12
651.46	1257.02
651.80	1250.07
652.14	1243.71
652.49	1238.76
652.83	1231.93
653.17	1224.57
653.51	1218.76
653.85	1212.93
654.20	1206.71
654.54	1200.36
654.88	1194.14
655.22	1188.12
655.56	1181.98
655.90	1175.55
656.25	1169.69
656.59	1164.26
656.93	1158.83
657.27	1153.83
657.61	1147.52
657.95	1142.21
658.29	1136.31
658.64	1131.05
658.98	1124.31
659.32	1117.95
659.66	1111.17
660.00	1105.12
660.34	1099.86
660.68	1093.55
661.02	1087.21
661.36	1082.10
661.70	1076.79
662.05	1071.52
662.39	1065.21
662.73	1059.90
663.07	1055.60
663.41	1049.62
663.75	1043.50
664.09	1037.74
664.43	1031.02
664.77	1025.55
665.11	1018.67
665.45	1013.40
665.79	1007.55
666.13	1001.62
666.47	996.52
666.81	991.00
667.15	985.50
667.49	980.95
667.83	975.74
668.17	970.38
668.51	965.83
668.85	960.29
669.19	955.79
669.53	949.45
669.87	943.48
670.21	936.45
670.55	930.98
670.89	926.43
671.23	920.69
671.57	914.95
671.91	909.86
672.25	905.88
672.58	901.31
672.92	895.55
673.26	891.33
673.60	886.36
673.94	881.24
674.28	876.10
674.62	870.43
674.96	865.07
675.30	860.71
675.64	854.62
675.97	849.69
676.31	843.14
676.65	838.52
676.99	834.60
677.33	830.19
677.67	825.38
678.01	819.45
678.34	815.02
678.68	810.88
679.02	805.76
679.36	799.57
679.70	794.00
680.04	789.64
680.37	784.33
680.71	778.98
681.05	774.67
681.39	769.79
681.73	764.93
682.06	759.69
682.40	754.45
682.74	749.93
683.08	745.33
683.42	740.81
683.75	736.21
684.09	730.31
684.43	725.52
684.77	720.71
685.10	716.17
685.44	711.24
685.78	705.79
686.12	701.69
686.45	697.45
686.79	692.31
687.13	687.98
687.46	683.36
687.80	679.48
688.14	674.74
688.48	670.57
688.81	666.00
689.15	662.52
689.49	658.05
689.82	653.38
690.16	648.43
690.50	644.21
690.83	639.95
691.17	635.40
691.51	630.83
691.84	626.36
692.18	621.93
692.52	617.57
692.85	613.98
693.19	610.07
693.52	606.00
693.86	601.62
694.20	597.17
694.53	593.21
694.87	588.81
695.21	584.21
695.54	580.02
695.88	576.00
696.21	570.45
696.55	566.40
696.88	562.31
697.22	558.38
697.56	554.69
697.89	550.33
698.23	547.10
698.56	543.14
698.90	539.50
699.23	536.05
699.57	532.43
699.90	528.19
700.24	523.88
700.58	520.02
700.91	517.07
701.25	515.60
701.58	513.02
701.92	510.10
702.25	506.98
702.59	503.26
702.92	499.76
703.26	496.86
703.59	493.86
703.93	492.48
704.26	489.74
704.60	486.83
704.93	483.57
705.26	480.21
705.60	478.17
705.93	475.05
706.27	472.60
706.60	470.07
706.94	468.00
707.27	465.05
707.61	462.83
707.94	460.02
708.27	455.10
708.61	451.07
708.94	447.83
709.28	445.29
709.61	442.57
709.94	440.21
710.28	437.76
710.61	435.12
710.95	430.40
711.28	429.00
711.61	426.17
711.95	424.43
712.28	421.88
712.61	418.60
712.95	417.12
713.28	415.36
713.61	412.60
713.95	409.64
714.28	407.38
714.61	404.71
714.95	402.24
715.28	399.74
715.61	397.24
715.95	395.12
716.28	392.60
716.61	390.45
716.95	387.76
717.28	385.69
717.61	383.36
717.94	381.48
718.28	377.64
718.61	375.57
718.94	373.21
719.27	371.21
719.61	369.29
719.94	366.83
720.27	363.67
720.60	361.60
720.94	359.64
721.27	357.81
721.60	356.45
721.93	354.62
722.27	353.74
722.60	352.62
722.93	350.55
723.26	349.17
723.59	347.79
723.93	346.48
724.26	345.17
724.59	343.67
724.92	342.43
725.25	341.79
725.59	340.24
725.92	338.98
726.25	337.62
726.58	336.40
726.91	334.90
727.24	334.10
727.57	332.62
727.91	331.12
728.24	329.90
728.57	327.95
728.90	326.86
729.23	324.83
729.56	324.40
729.89	323.43
730.22	322.05
730.55	320.50
730.89	319.19
731.22	317.71
731.55	316.19
731.88	315.00
732.21	313.52
732.54	312.19
732.87	310.76
733.20	309.64
733.53	308.64
733.86	307.48
734.19	305.98
734.52	305.38
734.85	305.83
735.18	304.50
735.51	304.10
735.84	303.12
736.17	302.64
736.50	300.52
736.83	301.88
737.16	300.83
737.49	300.36
737.82	299.07
738.15	298.45
738.48	297.64
738.81	296.40
739.14	295.10
739.47	294.26
739.80	293.67
740.13	292.76
740.46	291.57
740.79	290.57
741.12	289.69
741.45	288.33
741.78	286.19
742.11	285.83
742.44	284.67
742.77	284.05
743.10	282.83
743.43	282.00
743.75	278.86
744.08	280.71
744.41	279.60
744.74	278.93
745.07	277.62
745.40	277.31
745.73	277.62
746.06	277.12
746.39	276.40
746.71	275.17
747.04	274.31
747.37	273.43
747.70	273.12
748.03	272.36
748.36	272.02
748.68	271.33
749.01	270.14
749.34	269.38
749.67	268.52
750.00	268.50
750.33	269.57
750.65	269.38
750.98	266.14
751.31	265.48
751.64	265.12
751.97	265.71
752.29	264.90
752.62	263.02
752.95	262.14
753.28	261.45
753.60	260.90
753.93	260.93
754.26	260.69
754.59	259.38
754.91	258.79
755.24	258.31
755.57	257.83
755.90	257.33
756.22	256.74
756.55	255.95
756.88	254.55
757.20	252.71
757.53	251.38
757.86	250.86
758.19	250.31
758.51	249.62
758.84	248.10
759.17	247.29
759.49	247.07
759.82	247.64
760.15	247.36
760.47	246.93
760.80	245.95
761.13	245.79
761.45	245.26
761.78	244.83
762.11	244.40
762.43	243.52
762.76	243.05
763.08	242.86
763.41	242.93
763.74	242.86
764.06	242.36
764.39	242.05
764.71	241.52
765.04	241.00
765.37	240.50
765.69	240.26
766.02	239.98
766.34	239.64
766.67	238.67
767.00	238.55
767.32	239.36
767.65	240.02
767.97	239.60
768.30	239.52
768.62	239.26
768.95	238.33
769.27	238.05
769.60	238.00
769.92	237.36
770.25	236.36
770.57	235.79
770.90	235.24
771.22	234.71
771.55	234.55
771.87	234.38
772.20	234.17
772.52	235.26
772.85	237.55
773.17	237.17
773.50	236.69
773.82	236.60
774.15	235.24
774.47	233.88
774.80	233.48
775.12	233.45
775.45	233.05
775.77	233.36
776.09	233.33
776.42	233.33
776.74	233.95
777.07	233.98
777.39	233.69
777.72	233.38
778.04	233.69
778.36	233.48
778.69	233.55
779.01	233.33
779.33	231.50
779.66	228.86
779.98	228.48
780.31	228.29
780.63	228.81
780.95	229.10
781.28	228.95
781.60	228.43
781.92	227.93
782.25	227.90
782.57	227.67
782.89	227.43
783.22	227.02
783.54	226.17
783.86	225.95
784.19	225.79
784.51	226.33
784.83	225.93
785.16	225.69
785.48	225.48
785.80	225.26
786.12	225.31
786.45	225.12
786.77	225.10
787.09	225.00
787.42	223.90
787.74	223.86
788.06	223.57
788.38	223.21
788.71	223.07
789.03	222.71
789.35	223.02
789.67	222.48
789.99	222.45
790.32	222.24
790.64	222.40
790.96	224.21
791.28	223.45
791.61	223.24
791.93	223.29
792.25	222.88
792.57	224.52
792.89	224.05
793.21	224.21
793.54	224.21
793.86	223.93
794.18	224.14
794.50	223.50
794.82	223.48
795.14	224.31
795.47	224.52
795.79	224.76
796.11	223.90
796.43	224.00
796.75	223.93
797.07	223.95
797.39	223.86
797.71	222.26
798.04	222.29
798.36	222.36
798.68	222.02
799.00	222.24
799.32	220.98
799.64	221.36
799.96	221.14
800.28	221.43
800.60	221.10
800.92	220.95
801.24	220.98
801.56	221.19
801.89	220.81
802.21	220.76
802.53	220.19
802.85	220.74
803.17	221.60
803.49	220.95
803.81	220.74
804.13	220.60
804.45	220.45
804.77	220.55
805.09	220.55
805.41	220.45
805.73	219.95
806.05	219.29
806.37	218.95
806.69	218.76
807.01	218.43
807.33	218.50
807.65	217.74
807.97	218.69
808.28	218.57
808.60	218.19
808.92	217.88
809.24	219.38
809.56	219.00
809.88	218.38
810.20	218.64
810.52	218.93
810.84	218.69
811.16	218.33
811.48	218.10
811.80	218.79
812.12	218.79
812.43	219.26
812.75	219.50
813.07	219.17
813.39	219.29
813.71	219.12
814.03	219.10
814.35	219.38
814.67	218.40
814.98	218.07
815.30	218.07
815.62	217.88
815.94	216.33
816.26	216.24
816.58	215.50
816.89	215.81
817.21	215.48
817.53	215.45
817.85	215.33
818.17	215.43
818.48	214.64
818.80	214.93
819.12	214.62
819.44	214.26
819.76	214.45
820.07	214.33
820.39	214.31
820.71	214.24
821.03	214.24
821.34	214.05
821.66	214.55
821.98	214.93
822.30	214.90
822.61	216.00
822.93	216.00
823.25	216.45
823.57	216.07
823.88	216.21
824.20	216.24
824.52	216.71
824.83	216.52
825.15	216.24
825.47	216.29
825.79	216.40
826.10	216.45
826.42	216.26
826.74	216.55
827.05	216.57
827.37	216.90
827.69	216.64
828.00	216.64
828.32	216.55
828.64	216.02
828.95	216.95
829.27	216.69
829.58	216.48
829.90	216.79
830.22	216.90
830.53	216.57
830.85	216.36
831.17	216.17
831.48	216.26
831.80	216.52
832.11	216.19
832.43	216.02
832.75	215.83
833.06	217.00
833.38	216.29
833.69	216.17
834.01	216.00
834.32	216.10
834.64	215.95
834.96	215.81
835.27	216.00
835.59	215.33
835.90	214.79
836.22	214.62
836.53	213.98
836.85	213.64
837.16	215.55
837.48	215.81
837.79	216.07
838.11	216.12
838.42	216.10
838.74	216.31
839.05	216.05
839.37	215.90
839.68	214.67
840.00	214.60
840.31	214.55
840.63	214.43
840.94	214.14
841.26	214.00
841.57	213.95
841.88	214.05
842.20	213.60
842.51	213.29
842.83	213.62
843.14	215.55
843.46	215.76
843.77	214.83
844.08	214.52
844.40	214.02
844.71	213.81
845.03	213.45
845.34	213.48
845.65	213.29
845.97	213.52
846.28	213.62
846.60	213.71
846.91	213.52
847.22	213.62
847.54	213.88
847.85	214.21
848.16	213.98
848.48	213.57
848.79	214.86
849.10	215.21
849.42	215.33
849.73	213.45
850.04	213.24
850.36	212.29
850.67	212.83
850.98	212.98
851.30	213.26
851.61	213.38
851.92	213.17
852.23	213.74
852.55	213.88
852.86	213.93
853.17	214.14
853.49	214.62
853.80	214.98
854.11	215.17
854.42	215.33
854.74	215.14
855.05	214.93
855.36	213.52
855.67	213.81
855.99	213.81
856.30	216.36
856.61	216.60
856.92	216.79
857.23	216.81
857.55	216.57
857.86	216.50
858.17	216.79
858.48	216.31
858.79	215.98
859.11	216.00
859.42	216.05
859.73	215.93
860.04	215.90
860.35	215.05
860.66	214.38
860.98	214.26
861.29	214.55
861.60	214.88
861.91	215.57
862.22	214.98
862.53	214.55
862.84	211.90
863.16	212.19
863.47	211.76
863.78	211.38
864.09	211.69
864.40	211.71
864.71	211.69
865.02	212.36
865.33	212.31
865.64	212.05
865.95	212.05
866.27	213.40
866.58	213.07
866.89	213.45
867.20	213.57
867.51	213.05
867.82	213.14
868.13	213.57
868.44	213.07
868.75	213.60
869.06	213.62
869.37	213.98
869.68	213.21
869.99	213.79
870.30	213.95
870.61	213.93
870.92	213.76
871.23	213.67
871.54	213.90
871.85	214.50
872.16	214.64
872.47	214.36
872.78	213.05
873.09	213.40
873.40	213.36
873.71	213.50
874.02	213.90
874.33	213.62
874.64	213.05
874.95	213.45
875.26	212.74
875.56	212.64
875.87	212.71
876.18	212.93
876.49	214.88
876.80	214.40
877.11	213.95
877.42	213.88
877.73	213.67
878.04	213.19
878.35	213.00
878.66	213.02
878.96	213.00
879.27	212.90
879.58	212.69
879.89	212.48
880.20	213.07
880.51	212.83
880.82	212.57
881.12	212.90
881.43	212.29
881.74	212.21
882.05	212.17
882.36	211.88
882.67	212.00
882.97	209.60
883.28	209.79
883.59	209.90
883.90	210.12
884.21	210.40
884.51	210.07
884.82	209.76
885.13	209.69
885.44	209.81
885.74	209.79
886.05	209.74
886.36	209.81
886.67	208.93
886.98	210.12
887.28	210.55
887.59	210.29
887.90	210.33
888.20	210.40
888.51	210.86
888.82	210.55
889.13	210.55
889.43	212.24
889.74	212.05
890.05	211.86
890.35	211.48
890.66	211.26
890.97	211.19
891.28	211.07
891.58	211.33
891.89	211.24
892.20	211.14
892.50	210.95
892.81	210.83
893.12	210.83
893.42	209.60
893.73	209.50
894.04	209.74
894.34	210.19
894.65	210.29
894.95	209.95
895.26	210.29
895.57	211.26
895.87	209.57
896.18	209.90
896.48	210.36
896.79	210.48
897.10	210.60
897.40	210.90
897.71	211.10
898.01	210.81
898.32	211.05
898.63	211.12
898.93	211.26
899.24	211.21
899.54	211.45
899.85	211.60
900.15	211.57
900.46	211.43
900.76	211.43
901.07	211.60
901.38	211.76
901.68	212.10
901.99	211.10
902.29	211.21
902.60	211.00
902.90	210.69
903.21	210.79
903.51	210.83
903.82	211.43
904.12	211.43
904.43	211.62
904.73	211.48
905.03	211.81
905.34	213.74
905.64	213.93
905.95	213.93
906.25	213.81
906.56	213.88
906.86	214.00
907.17	213.76
907.47	213.60
907.77	213.50
908.08	213.05
908.38	213.14
908.69	213.52
908.99	213.98
909.30	214.10
909.60	214.12
909.90	214.17
910.21	213.33
910.51	213.26
910.81	213.48
911.12	213.79
911.42	213.50
911.73	211.43
912.03	211.43
912.33	211.76
912.64	211.83
912.94	211.64
913.24	211.29
913.55	211.26
913.85	211.10
914.15	211.50
914.46	211.45
914.76	211.36
915.06	211.10
915.37	210.57
915.67	210.40
915.97	210.43
916.27	210.02
916.58	210.10
916.88	209.90
917.18	209.38
917.49	210.64
917.79	210.67
918.09	211.10
918.39	211.64
918.70	211.50
919.00	211.45
919.30	212.64
919.60	212.74
919.91	212.64
920.21	212.79
920.51	212.07
920.81	212.38
921.12	212.57
921.42	212.36
921.72	212.64
922.02	212.86
922.32	212.93
922.63	212.93
922.93	214.07
923.23	214.02
923.53	214.10
923.83	212.88
924.13	213.05
924.44	213.17
924.74	213.21
925.04	213.79
925.34	213.98
925.64	212.98
925.94	213.10
926.24	214.31
926.55	214.24
926.85	214.62
927.15	214.48
927.45	214.52
927.75	214.69
928.05	214.67
928.35	214.50
928.65	214.76
928.95	215.24
929.26	214.52
929.56	215.00
929.86	215.12
930.16	214.76
930.46	214.57
930.76	214.24
931.06	213.62
931.36	213.14
931.66	213.45
931.96	213.62
932.26	213.71
932.56	212.88
932.86	213.02
933.16	213.10
933.46	212.98
933.76	212.83
934.06	213.26
934.36	213.95
934.66	213.79
934.96	213.64
935.26	213.74
935.56	213.95
935.86	213.62
936.16	213.43
936.46	213.45
936.76	213.52
937.06	213.50
937.36	213.60
937.66	213.45
937.96	213.07
938.26	212.69
938.56	212.45
938.86	212.55
939.16	212.93
939.46	213.12
939.76	213.45
940.06	213.33
940.35	212.88
940.65	211.90
940.95	212.26
941.25	211.79
941.55	211.33
941.85	211.12
942.15	211.57
942.45	212.26
942.75	212.29
943.04	212.31
943.34	212.71
943.64	212.31
943.94	212.10
944.24	212.29
944.54	212.45
944.84	212.36
945.13	211.98
945.43	211.57
945.73	211.48
946.03	211.26
946.33	210.93
946.62	210.74
946.92	210.83
947.22	211.02
947.52	211.12
947.82	211.33
948.11	211.19
948.41	210.50
948.71	209.83
949.01	209.90
949.31	209.83
949.60	209.40
949.90	209.79
950.20	209.67
950.50	209.55
950.79	209.26
951.09	209.60
951.39	209.43
951.69	209.21
951.98	209.45
952.28	209.38
952.58	209.62
952.87	209.69
953.17	209.90
953.47	209.36
953.76	209.40
954.06	209.07
954.36	208.86
954.66	209.00
954.95	209.48
955.25	209.45
955.55	209.40
955.84	209.19
956.14	209.50
956.44	209.64
956.73	209.26
957.03	209.50
957.32	209.36
957.62	209.45
957.92	209.81
958.21	209.62
958.51	212.12
958.81	212.17
959.10	212.60
959.40	213.07
959.69	213.24
959.99	213.48
960.29	213.52
960.58	213.52
960.88	214.50
961.17	214.19
961.47	214.26
961.76	214.02
962.06	214.50
962.36	214.07
962.65	214.26
962.95	214.52
963.24	214.36
963.54	214.40
963.83	214.69
964.13	214.83
964.42	214.33
964.72	212.67
965.01	212.88
965.31	212.48
965.60	211.62
965.90	213.14
966.19	212.69
966.49	212.86
966.78	212.79
967.08	212.33
967.37	212.33
967.67	212.24
967.96	212.93
968.26	212.90
968.55	213.21
968.85	213.14
969.14	213.00
969.43	213.17
969.73	213.17
970.02	212.93
970.32	212.55
970.61	212.57
970.91	211.88
971.20	211.43
971.49	211.21
971.79	211.76
972.08	210.07
972.38	210.21
972.67	210.00
972.96	210.45
973.26	210.12
973.55	210.83
973.85	210.69
974.14	210.50
974.43	210.55
974.73	210.36
975.02	210.00
975.31	210.24
975.61	210.21
975.90	210.02
976.19	209.83
976.49	210.21
976.78	210.50
977.07	210.40
977.37	210.69
977.66	211.02
977.95	210.48
978.24	210.83
978.54	211.43
978.83	211.17
979.12	210.83
979.42	210.71
979.71	210.12
980.00	210.21
980.29	210.19
980.59	209.79
980.88	210.36
981.17	210.50
981.46	210.45
981.76	210.43
982.05	211.05
982.34	211.45
982.63	211.29
982.93	210.93
983.22	211.57
983.51	211.48
983.80	211.86
984.09	212.21
984.39	211.90
984.68	211.55
984.97	212.02
985.26	211.86
985.55	212.02
985.85	211.74
986.14	211.98
986.43	212.05
986.72	212.00
987.01	211.31
987.30	211.38
987.59	211.26
987.89	211.31
988.18	210.55
988.47	210.24
988.76	210.26
989.05	210.48
989.34	210.19
989.63	210.83
989.92	210.19
990.22	209.98
990.51	210.12
990.80	209.98
991.09	210.05
991.38	210.36
991.67	210.45
991.96	210.48
992.25	210.21
992.54	209.88
992.83	209.74
993.12	209.79
993.41	210.05
993.70	210.88
993.99	211.29
994.28	211.57
994.58	211.71
994.87	211.48
995.16	211.24
995.45	211.00
995.74	210.17
996.03	210.76
996.32	211.14
996.61	211.64
996.90	211.55
997.19	211.43
997.48	211.31
997.77	211.02
998.06	210.86
998.34	211.07
998.63	211.02
998.92	211.17
999.21	211.55
999.50	211.55
999.79	210.74
1000.08	210.43
1000.37	210.55
1000.66	210.26
1000.95	210.67
1001.24	210.86
1001.53	211.17
1001.82	211.21
1002.11	210.64
1002.40	210.90
1002.68	211.07
1002.97	212.67
1003.26	212.36
1003.55	212.24
1003.84	212.14
1004.13	213.12
1004.42	212.81
1004.71	212.76
1004.99	212.88
1005.28	213.14
1005.57	212.90
1005.86	212.71
1006.15	212.60
1006.44	212.24
1006.72	212.55
1007.01	212.24
1007.30	212.33
1007.59	212.02
1007.88	212.00
1008.17	212.07
1008.45	211.55
1008.74	210.93
1009.03	209.71
1009.32	210.00
1009.60	209.83
1009.89	210.00
1010.18	209.07
1010.47	209.02
1010.76	209.24
1011.04	209.12
1011.33	209.19
1011.62	209.36
1011.91	209.57
1012.19	209.76
1012.48	209.81
1012.77	209.88
1013.05	210.76
1013.34	210.64
1013.63	210.40
1013.92	210.55
1014.20	210.43
1014.49	210.52
1014.78	210.64
1015.06	210.29
1015.35	210.07
1015.64	210.31
1015.92	210.55
1016.21	210.74
1016.50	210.81
1016.78	210.93
1017.07	211.12
1017.36	210.60
1017.64	210.48
1017.93	210.74
1018.22	210.60
1018.50	210.60
1018.79	210.52
1019.08	209.71
1019.36	209.86
1019.65	210.10
1019.93	210.60
1020.22	211.00
1020.51	212.19
1020.79	212.02
1021.08	210.00
1021.36	206.50
1021.65	211.50
1021.94	211.00
1022.22	210.50
1022.51	211.00
1022.79	219.00
1023.08	214.00
1023.36	237.50
1023.65	208.00
>>>>>End Processed Spectral Data<<<<<
