SpectraSuite Data File
++++++++++++++++++++++++++++++++++++
Date: Tue Apr 02 18:37:55 EDT 2013
User: group
Dark Spectrum Present: No
Reference Spectrum Present: No
Number of Sampled Component Spectra: 1
Spectrometers: USB2E7196
Integration Time (usec): 580000 (USB2E7196)
Spectra Averaged: 2 (USB2E7196)
Boxcar Smoothing: 10 (USB2E7196)
Correct for Electrical Dark: No (USB2E7196)
Strobe/Lamp Enabled: No (USB2E7196)
Correct for Detector Non-linearity: No (USB2E7196)
Correct for Stray Light: No (USB2E7196)
Number of Pixels in Processed Spectrum: 2048
>>>>>Begin Processed Spectral Data<<<<<
339.09	0.00
339.48	195.00
339.86	189.00
340.24	199.00
340.63	198.00
341.01	229.00
341.39	197.00
341.78	205.50
342.16	206.00
342.54	206.00
342.93	197.36
343.31	207.24
343.69	207.67
344.07	208.48
344.46	209.07
344.84	209.76
345.22	208.71
345.60	209.40
345.99	209.81
346.37	210.05
346.75	210.12
347.13	210.05
347.52	209.98
347.90	210.71
348.28	211.19
348.66	211.90
349.05	211.26
349.43	211.81
349.81	212.17
350.19	212.33
350.57	212.57
350.96	212.64
351.34	213.05
351.72	213.24
352.10	213.29
352.48	213.14
352.87	213.17
353.25	213.40
353.63	213.60
354.01	213.48
354.39	213.79
354.77	214.10
355.15	214.95
355.54	214.88
355.92	214.31
356.30	214.12
356.68	215.26
357.06	215.29
357.44	215.02
357.82	215.17
358.20	216.12
358.58	216.00
358.97	216.14
359.35	216.29
359.73	216.95
360.11	217.12
360.49	217.45
360.87	217.48
361.25	217.81
361.63	218.24
362.01	218.55
362.39	218.26
362.77	218.38
363.15	218.05
363.53	218.17
363.91	218.31
364.29	218.40
364.67	216.17
365.05	216.31
365.43	216.33
365.81	216.26
366.19	216.24
366.57	217.14
366.95	217.10
367.33	216.60
367.71	216.36
368.09	216.86
368.47	216.71
368.85	216.67
369.23	217.10
369.61	216.38
369.99	216.64
370.37	216.81
370.75	217.76
371.13	217.50
371.51	217.05
371.89	217.21
372.27	217.26
372.65	217.76
373.03	217.74
373.41	217.62
373.78	217.86
374.16	216.69
374.54	216.02
374.92	215.86
375.30	215.93
375.68	215.38
376.06	215.07
376.44	214.95
376.82	214.95
377.19	214.76
377.57	214.52
377.95	214.10
378.33	213.90
378.71	212.52
379.09	212.74
379.47	213.12
379.84	212.71
380.22	212.33
380.60	211.90
380.98	211.74
381.36	211.62
381.73	211.24
382.11	211.60
382.49	211.55
382.87	211.40
383.25	211.40
383.62	213.79
384.00	213.60
384.38	213.48
384.76	213.74
385.13	214.14
385.51	214.40
385.89	214.00
386.27	214.21
386.64	214.76
387.02	214.38
387.40	214.12
387.78	214.40
388.15	214.67
388.53	214.55
388.91	214.71
389.29	214.67
389.66	214.83
390.04	214.62
390.42	215.02
390.79	215.05
391.17	215.10
391.55	212.95
391.92	213.05
392.30	213.38
392.68	212.95
393.05	213.02
393.43	213.05
393.81	213.33
394.18	212.88
394.56	212.76
394.94	213.33
395.31	213.29
395.69	213.88
396.06	214.17
396.44	214.50
396.82	214.40
397.19	215.57
397.57	215.52
397.95	215.98
398.32	215.33
398.70	215.52
399.07	215.98
399.45	216.24
399.82	215.98
400.20	215.69
400.58	215.90
400.95	215.00
401.33	215.71
401.70	217.12
402.08	217.43
402.45	217.40
402.83	218.02
403.20	218.33
403.58	218.12
403.95	218.40
404.33	218.88
404.71	219.21
405.08	220.43
405.46	220.62
405.83	220.90
406.21	221.33
406.58	221.88
406.96	222.00
407.33	222.69
407.70	223.86
408.08	226.50
408.45	227.57
408.83	228.88
409.20	229.14
409.58	228.88
409.95	230.29
410.33	231.29
410.70	231.64
411.08	232.98
411.45	234.36
411.82	235.52
412.20	237.26
412.57	239.95
412.95	239.48
413.32	241.50
413.69	243.43
414.07	245.48
414.44	247.52
414.82	250.07
415.19	252.45
415.56	255.14
415.94	256.40
416.31	259.52
416.68	262.62
417.06	266.43
417.43	270.55
417.81	274.31
418.18	278.69
418.55	283.17
418.93	287.74
419.30	292.67
419.67	298.12
420.04	303.21
420.42	308.19
420.79	316.67
421.16	323.14
421.54	330.81
421.91	337.95
422.28	345.60
422.66	353.00
423.03	362.02
423.40	369.67
423.77	378.45
424.15	387.05
424.52	395.93
424.89	406.02
425.26	414.86
425.64	423.76
426.01	433.88
426.38	444.19
426.75	455.50
427.13	466.43
427.50	477.62
427.87	489.38
428.24	501.05
428.61	510.81
428.99	524.19
429.36	536.45
429.73	550.05
430.10	563.05
430.47	577.36
430.85	590.29
431.22	605.43
431.59	622.90
431.96	637.83
432.33	654.69
432.70	670.71
433.08	689.62
433.45	708.05
433.82	726.07
434.19	746.21
434.56	766.12
434.93	784.81
435.30	803.52
435.68	824.69
436.05	845.48
436.42	865.76
436.79	884.98
437.16	906.07
437.53	927.90
437.90	949.21
438.27	970.36
438.64	992.83
439.01	1013.79
439.38	1030.52
439.75	1048.88
440.13	1069.00
440.50	1087.83
440.87	1104.07
441.24	1120.38
441.61	1138.33
441.98	1151.55
442.35	1166.38
442.72	1182.64
443.09	1199.19
443.46	1208.31
443.83	1214.43
444.20	1220.64
444.57	1228.17
444.94	1232.38
445.31	1236.57
445.68	1243.21
446.05	1245.17
446.42	1243.55
446.79	1241.83
447.16	1239.71
447.53	1238.14
447.90	1230.52
448.27	1223.62
448.64	1212.76
449.01	1205.83
449.37	1192.76
449.74	1180.48
450.11	1166.88
450.48	1149.14
450.85	1130.21
451.22	1115.31
451.59	1101.71
451.96	1088.02
452.33	1069.29
452.70	1052.14
453.07	1031.81
453.43	1008.64
453.80	988.95
454.17	969.90
454.54	952.10
454.91	932.81
455.28	913.64
455.65	896.14
456.02	881.71
456.38	866.95
456.75	848.19
457.12	831.38
457.49	815.36
457.86	798.10
458.23	785.95
458.59	772.02
458.96	758.31
459.33	745.00
459.70	732.48
460.07	722.67
460.43	711.69
460.80	701.36
461.17	693.21
461.54	683.64
461.91	673.88
462.27	663.76
462.64	655.62
463.01	646.71
463.38	638.86
463.74	627.00
464.11	619.33
464.48	611.86
464.85	605.21
465.21	600.40
465.58	594.95
465.95	587.14
466.32	581.40
466.68	574.83
467.05	569.50
467.42	563.98
467.78	557.19
468.15	550.74
468.52	546.05
468.88	539.26
469.25	534.00
469.62	530.14
469.98	525.36
470.35	520.98
470.72	516.93
471.08	511.86
471.45	508.17
471.82	504.88
472.18	501.26
472.55	498.40
472.92	493.86
473.28	490.43
473.65	487.33
474.02	484.29
474.38	482.00
474.75	479.48
475.11	476.69
475.48	475.07
475.85	473.52
476.21	471.33
476.58	470.36
476.94	468.88
477.31	467.83
477.67	466.76
478.04	465.67
478.41	465.19
478.77	466.60
479.14	465.43
479.50	464.60
479.87	464.60
480.23	464.00
480.60	463.86
480.96	463.79
481.33	464.67
481.69	464.55
482.06	465.00
482.42	465.93
482.79	466.52
483.15	467.19
483.52	468.36
483.88	469.31
484.25	470.24
484.61	471.98
484.98	472.83
485.34	474.64
485.71	476.60
486.07	478.50
486.44	478.50
486.80	481.12
487.17	483.07
487.53	485.81
487.90	488.71
488.26	492.50
488.62	495.71
488.99	498.38
489.35	502.19
489.72	505.40
490.08	508.48
490.44	511.88
490.81	516.31
491.17	520.29
491.54	525.17
491.90	529.76
492.26	533.67
492.63	538.31
492.99	543.45
493.36	549.10
493.72	554.52
494.08	560.76
494.45	566.76
494.81	573.88
495.17	580.10
495.54	587.05
495.90	593.71
496.26	600.62
496.63	608.02
496.99	615.21
497.35	622.76
497.72	630.48
498.08	638.10
498.44	645.88
498.80	653.95
499.17	662.10
499.53	670.38
499.89	679.62
500.26	688.55
500.62	697.31
500.98	706.93
501.34	716.12
501.71	725.62
502.07	734.86
502.43	743.55
502.79	752.81
503.16	761.64
503.52	770.69
503.88	779.55
504.24	789.00
504.60	799.00
504.97	809.50
505.33	819.48
505.69	830.57
506.05	840.43
506.41	850.33
506.78	860.17
507.14	870.10
507.50	879.88
507.86	890.76
508.22	900.74
508.59	909.98
508.95	920.71
509.31	931.33
509.67	941.55
510.03	951.79
510.39	961.98
510.75	972.55
511.12	982.81
511.48	993.83
511.84	1003.74
512.20	1013.48
512.56	1023.10
512.92	1033.00
513.28	1042.60
513.64	1052.55
514.00	1062.52
514.37	1072.19
514.73	1082.19
515.09	1092.55
515.45	1100.50
515.81	1110.17
516.17	1118.24
516.53	1126.40
516.89	1134.17
517.25	1143.05
517.61	1151.74
517.97	1159.76
518.33	1167.40
518.69	1175.93
519.05	1183.33
519.41	1191.67
519.77	1201.02
520.13	1208.45
520.49	1215.71
520.85	1222.12
521.21	1229.52
521.57	1236.76
521.93	1242.76
522.29	1249.36
522.65	1254.45
523.01	1261.76
523.37	1267.33
523.73	1274.00
524.09	1279.43
524.45	1285.38
524.81	1290.52
525.17	1296.81
525.53	1302.83
525.89	1309.07
526.25	1314.17
526.61	1318.71
526.97	1322.57
527.33	1326.90
527.68	1333.57
528.04	1338.14
528.40	1343.24
528.76	1347.67
529.12	1352.31
529.48	1357.98
529.84	1361.62
530.20	1366.24
530.56	1369.76
530.91	1373.93
531.27	1377.64
531.63	1382.14
531.99	1385.83
532.35	1389.40
532.71	1391.26
533.07	1395.12
533.42	1400.02
533.78	1402.48
534.14	1407.36
534.50	1410.12
534.86	1413.19
535.21	1414.12
535.57	1418.24
535.93	1420.76
536.29	1425.43
536.65	1427.71
537.00	1429.21
537.36	1431.62
537.72	1433.48
538.08	1436.36
538.44	1438.14
538.79	1440.40
539.15	1441.71
539.51	1443.40
539.87	1445.38
540.22	1448.19
540.58	1449.19
540.94	1448.95
541.29	1450.98
541.65	1451.17
542.01	1453.83
542.37	1453.81
542.72	1454.17
543.08	1454.00
543.44	1454.79
543.79	1452.05
544.15	1452.50
544.51	1454.07
544.87	1454.81
545.22	1455.79
545.58	1454.67
545.94	1454.40
546.29	1453.98
546.65	1453.48
547.01	1453.12
547.36	1451.83
547.72	1449.81
548.07	1448.86
548.43	1447.76
548.79	1445.67
549.14	1444.10
549.50	1442.48
549.86	1440.64
550.21	1439.36
550.57	1437.76
550.92	1435.64
551.28	1434.93
551.64	1433.31
551.99	1430.21
552.35	1428.33
552.70	1425.93
553.06	1425.21
553.41	1423.90
553.77	1424.19
554.13	1422.93
554.48	1422.14
554.84	1421.86
555.19	1420.98
555.55	1420.38
555.90	1419.21
556.26	1418.69
556.61	1416.74
556.97	1414.81
557.32	1413.36
557.68	1412.33
558.03	1410.95
558.39	1409.74
558.74	1409.10
559.10	1407.93
559.45	1407.33
559.81	1406.12
560.16	1404.05
560.52	1402.40
560.87	1400.71
561.23	1397.60
561.58	1397.98
561.94	1395.07
562.29	1393.10
562.64	1391.83
563.00	1389.05
563.35	1387.07
563.71	1385.12
564.06	1383.50
564.42	1382.90
564.77	1382.07
565.12	1380.93
565.48	1381.40
565.83	1379.81
566.19	1377.79
566.54	1375.50
566.89	1373.81
567.25	1372.33
567.60	1373.10
567.96	1373.93
568.31	1373.33
568.66	1372.31
569.02	1368.81
569.37	1367.17
569.72	1364.90
570.08	1363.14
570.43	1361.29
570.78	1359.67
571.14	1358.29
571.49	1357.24
571.84	1354.31
572.20	1351.88
572.55	1349.19
572.90	1344.81
573.26	1342.50
573.61	1339.55
573.96	1337.05
574.31	1333.76
574.67	1330.17
575.02	1326.07
575.37	1320.29
575.72	1316.21
576.08	1312.64
576.43	1309.31
576.78	1305.52
577.13	1302.07
577.49	1298.69
577.84	1295.76
578.19	1291.79
578.54	1288.10
578.90	1285.12
579.25	1281.12
579.60	1276.93
579.95	1272.31
580.30	1268.55
580.66	1265.05
581.01	1261.14
581.36	1256.57
581.71	1253.40
582.06	1251.50
582.42	1247.60
582.77	1243.38
583.12	1240.05
583.47	1235.90
583.82	1231.90
584.17	1228.40
584.53	1224.93
584.88	1220.81
585.23	1217.36
585.58	1213.43
585.93	1208.45
586.28	1204.00
586.63	1200.86
586.98	1196.98
587.34	1194.79
587.69	1190.50
588.04	1186.43
588.39	1182.17
588.74	1177.64
589.09	1173.60
589.44	1167.21
589.79	1162.79
590.14	1159.14
590.49	1153.50
590.84	1149.26
591.19	1145.93
591.54	1141.76
591.89	1137.02
592.25	1134.36
592.60	1129.00
592.95	1125.19
593.30	1121.29
593.65	1116.40
594.00	1111.36
594.35	1112.62
594.70	1106.69
595.05	1102.55
595.40	1097.90
595.75	1093.71
596.10	1090.40
596.45	1085.36
596.80	1081.55
597.15	1077.05
597.50	1071.93
597.85	1068.98
598.19	1064.26
598.54	1059.10
598.89	1054.90
599.24	1051.50
599.59	1045.29
599.94	1040.81
600.29	1035.55
600.64	1031.88
600.99	1027.67
601.34	1023.67
601.69	1014.21
602.04	1009.74
602.39	1004.93
602.74	1000.93
603.08	996.43
603.43	992.40
603.78	988.55
604.13	984.36
604.48	979.67
604.83	976.43
605.18	972.24
605.53	968.83
605.87	964.55
606.22	960.12
606.57	954.76
606.92	950.74
607.27	946.90
607.62	943.00
607.96	938.40
608.31	934.17
608.66	929.74
609.01	924.98
609.36	921.55
609.70	917.93
610.05	913.31
610.40	909.90
610.75	904.69
611.10	900.12
611.44	895.38
611.79	891.17
612.14	886.76
612.49	881.33
612.83	875.98
613.18	871.52
613.53	866.45
613.88	861.74
614.22	856.64
614.57	851.67
614.92	846.93
615.27	842.48
615.61	837.55
615.96	832.62
616.31	828.02
616.65	823.62
617.00	818.69
617.35	814.55
617.70	808.88
618.04	804.86
618.39	800.05
618.74	796.71
619.08	792.21
619.43	787.52
619.78	783.67
620.12	779.64
620.47	775.45
620.82	771.14
621.16	767.07
621.51	764.69
621.85	760.24
622.20	756.55
622.55	751.76
622.89	748.17
623.24	745.31
623.59	741.55
623.93	737.95
624.28	734.10
624.62	731.98
624.97	729.90
625.32	726.48
625.66	723.29
626.01	718.86
626.35	716.05
626.70	712.67
627.04	709.74
627.39	705.98
627.73	703.50
628.08	700.52
628.43	697.07
628.77	692.24
629.12	689.74
629.46	686.50
629.81	683.79
630.15	680.21
630.50	675.62
630.84	672.38
631.19	668.50
631.53	665.17
631.88	659.60
632.22	654.95
632.57	651.62
632.91	648.24
633.26	644.90
633.60	640.67
633.95	637.19
634.29	632.64
634.64	629.45
634.98	625.19
635.32	622.81
635.67	620.31
636.01	617.29
636.36	613.52
636.70	610.74
637.05	607.12
637.39	603.98
637.73	601.60
638.08	598.52
638.42	595.31
638.77	592.52
639.11	590.02
639.45	587.02
639.80	583.57
640.14	580.12
640.49	577.26
640.83	574.45
641.17	571.52
641.52	568.74
641.86	566.33
642.20	564.31
642.55	560.45
642.89	557.40
643.23	554.36
643.58	552.38
643.92	548.33
644.26	545.14
644.61	542.64
644.95	539.60
645.29	536.24
645.64	533.98
645.98	531.10
646.32	528.36
646.66	525.69
647.01	523.10
647.35	520.69
647.69	517.81
648.04	515.24
648.38	512.60
648.72	510.33
649.06	507.21
649.41	503.88
649.75	501.33
650.09	498.76
650.43	496.19
650.78	492.67
651.12	490.17
651.46	488.12
651.80	484.81
652.14	482.31
652.49	480.74
652.83	477.57
653.17	474.95
653.51	472.14
653.85	469.33
654.20	466.79
654.54	464.14
654.88	461.36
655.22	460.21
655.56	457.17
655.90	454.64
656.25	452.55
656.59	449.86
656.93	448.19
657.27	446.14
657.61	444.10
657.95	442.55
658.29	440.45
658.64	438.62
658.98	436.81
659.32	434.36
659.66	431.83
660.00	429.95
660.34	428.00
660.68	426.10
661.02	424.48
661.36	422.62
661.70	420.95
662.05	419.48
662.39	416.93
662.73	416.02
663.07	415.33
663.41	413.40
663.75	411.60
664.09	409.43
664.43	407.14
664.77	405.17
665.11	402.81
665.45	401.14
665.79	399.36
666.13	397.76
666.47	396.07
666.81	394.69
667.15	392.95
667.49	391.38
667.83	390.07
668.17	388.52
668.51	386.79
668.85	385.38
669.19	384.62
669.53	382.12
669.87	380.19
670.21	378.02
670.55	376.62
670.89	376.12
671.23	374.50
671.57	372.83
671.91	371.57
672.25	370.38
672.58	369.45
672.92	367.50
673.26	365.98
673.60	364.55
673.94	363.00
674.28	361.76
674.62	360.64
674.96	358.93
675.30	357.55
675.64	356.55
675.97	355.10
676.31	353.17
676.65	352.07
676.99	351.76
677.33	350.12
677.67	348.98
678.01	346.57
678.34	345.62
678.68	345.17
679.02	343.88
679.36	342.50
679.70	340.93
680.04	339.88
680.37	338.74
680.71	337.76
681.05	336.57
681.39	335.43
681.73	334.00
682.06	332.98
682.40	331.74
682.74	330.52
683.08	330.24
683.42	328.76
683.75	328.14
684.09	326.12
684.43	325.26
684.77	323.64
685.10	322.67
685.44	321.26
685.78	319.79
686.12	318.76
686.45	317.67
686.79	316.50
687.13	315.95
687.46	314.93
687.80	314.50
688.14	313.05
688.48	312.24
688.81	311.62
689.15	310.95
689.49	309.86
689.82	309.14
690.16	307.29
690.50	306.55
690.83	305.52
691.17	304.45
691.51	303.19
691.84	302.90
692.18	302.05
692.52	301.10
692.85	300.50
693.19	300.48
693.52	299.93
693.86	299.00
694.20	298.00
694.53	297.43
694.87	296.19
695.21	295.48
695.54	294.74
695.88	293.48
696.21	291.98
696.55	291.40
696.88	290.60
697.22	289.67
697.56	289.17
697.89	288.10
698.23	287.69
698.56	286.98
698.90	285.95
699.23	285.24
699.57	284.74
699.90	283.50
700.24	282.05
700.58	281.24
700.91	280.79
701.25	281.55
701.58	281.31
701.92	281.02
702.25	280.50
702.59	279.40
702.92	278.95
703.26	278.67
703.59	278.12
703.93	278.90
704.26	278.67
704.60	277.95
704.93	277.40
705.26	276.55
705.60	276.19
705.93	275.38
706.27	275.29
706.60	275.02
706.94	275.57
707.27	274.60
707.61	274.02
707.94	273.48
708.27	271.31
708.61	270.14
708.94	269.52
709.28	268.90
709.61	268.40
709.94	267.83
710.28	267.33
710.61	266.62
710.95	264.29
711.28	265.21
711.61	264.55
711.95	264.62
712.28	264.07
712.61	263.38
712.95	264.00
713.28	264.43
713.61	263.60
713.95	262.31
714.28	262.00
714.61	261.05
714.95	260.24
715.28	259.69
715.61	259.24
715.95	258.69
716.28	258.07
716.61	258.14
716.95	257.64
717.28	257.19
717.61	256.74
717.94	256.33
718.28	254.21
718.61	253.79
718.94	252.95
719.27	252.52
719.61	252.67
719.94	251.67
720.27	250.07
720.60	249.57
720.94	249.45
721.27	249.24
721.60	249.31
721.93	248.88
722.27	249.10
722.60	248.79
722.93	248.02
723.26	248.02
723.59	247.14
723.93	247.07
724.26	246.95
724.59	246.60
724.92	246.43
725.25	246.81
725.59	246.26
725.92	245.95
726.25	245.40
726.58	244.71
726.91	244.19
727.24	244.12
727.57	243.79
727.91	243.05
728.24	242.79
728.57	242.33
728.90	242.71
729.23	241.88
729.56	242.60
729.89	242.60
730.22	242.07
730.55	241.95
730.89	241.26
731.22	240.64
731.55	240.31
731.88	240.14
732.21	239.48
732.54	239.14
732.87	239.12
733.20	239.05
733.53	238.71
733.86	238.79
734.19	238.10
734.52	238.12
734.85	238.98
735.18	238.64
735.51	239.12
735.84	238.81
736.17	239.10
736.50	237.81
736.83	240.17
737.16	239.83
737.49	239.62
737.82	239.45
738.15	239.76
738.48	239.60
738.81	239.19
739.14	238.62
739.47	238.55
739.80	238.26
740.13	238.29
740.46	237.88
740.79	237.31
741.12	237.02
741.45	236.36
741.78	235.21
742.11	235.45
742.44	234.71
742.77	234.57
743.10	233.83
743.43	233.62
743.75	231.02
744.08	233.69
744.41	233.52
744.74	233.38
745.07	232.50
745.40	232.50
745.73	233.24
746.06	233.05
746.39	233.00
746.71	232.43
747.04	231.86
747.37	231.93
747.70	232.10
748.03	232.26
748.36	232.69
748.68	232.62
749.01	231.83
749.34	231.71
749.67	231.88
750.00	232.14
750.33	233.40
750.65	233.52
750.98	230.90
751.31	230.24
751.64	230.12
751.97	231.33
752.29	230.93
752.62	229.88
752.95	229.79
753.28	229.43
753.60	229.36
753.93	229.95
754.26	229.64
754.59	228.88
754.91	228.76
755.24	228.45
755.57	228.21
755.90	228.19
756.22	227.86
756.55	227.02
756.88	226.57
757.20	225.07
757.53	224.10
757.86	223.83
758.19	224.02
758.51	223.81
758.84	222.50
759.17	222.14
759.49	221.98
759.82	222.76
760.15	222.88
760.47	222.67
760.80	221.83
761.13	222.26
761.45	222.31
761.78	222.02
762.11	221.98
762.43	221.48
762.76	221.14
763.08	221.45
763.41	221.50
763.74	221.60
764.06	221.55
764.39	221.81
764.71	221.81
765.04	221.79
765.37	221.48
765.69	221.50
766.02	221.67
766.34	221.69
766.67	221.00
767.00	221.14
767.32	222.12
767.65	223.52
767.97	223.02
768.30	223.07
768.62	222.95
768.95	222.81
769.27	222.76
769.60	223.38
769.92	222.88
770.25	222.45
770.57	221.90
770.90	221.79
771.22	221.33
771.55	221.33
771.87	221.17
772.20	221.29
772.52	222.81
772.85	225.29
773.17	225.40
773.50	225.40
773.82	225.17
774.15	224.14
774.47	222.67
774.80	222.64
775.12	222.50
775.45	222.40
775.77	222.19
776.09	222.60
776.42	222.26
776.74	222.71
777.07	222.71
777.39	222.88
777.72	222.52
778.04	222.90
778.36	222.60
778.69	222.74
779.01	222.81
779.33	221.12
779.66	218.67
779.98	218.29
780.31	218.17
780.63	218.98
780.95	219.43
781.28	219.40
781.60	219.33
781.92	219.21
782.25	219.33
782.57	219.57
782.89	219.26
783.22	219.12
783.54	218.81
783.86	219.02
784.19	218.67
784.51	219.55
784.83	219.19
785.16	219.17
785.48	218.83
785.80	218.76
786.12	218.93
786.45	218.86
786.77	219.00
787.09	218.81
787.42	218.05
787.74	218.10
788.06	218.05
788.38	217.76
788.71	217.48
789.03	217.38
789.35	217.43
789.67	217.24
789.99	217.17
790.32	216.88
790.64	217.00
790.96	218.67
791.28	218.00
791.61	217.79
791.93	217.64
792.25	217.57
792.57	219.02
792.89	218.57
793.21	218.83
793.54	218.62
793.86	218.26
794.18	218.12
794.50	217.67
794.82	217.67
795.14	218.10
795.47	218.57
795.79	218.67
796.11	218.17
796.43	218.24
796.75	218.60
797.07	218.76
797.39	218.67
797.71	217.29
798.04	217.36
798.36	217.90
798.68	218.05
799.00	218.33
799.32	216.93
799.64	217.38
799.96	217.26
800.28	217.57
800.60	217.64
800.92	218.17
801.24	218.00
801.56	218.24
801.89	218.12
802.21	218.36
802.53	218.00
802.85	218.38
803.17	219.21
803.49	218.33
803.81	218.19
804.13	218.17
804.45	218.12
804.77	218.31
805.09	218.17
805.41	217.83
805.73	217.60
806.05	217.45
806.37	217.26
806.69	216.98
807.01	216.74
807.33	217.24
807.65	216.45
807.97	217.45
808.28	217.38
808.60	217.31
808.92	216.86
809.24	218.33
809.56	218.00
809.88	217.14
810.20	217.50
810.52	217.93
810.84	217.57
811.16	217.21
811.48	217.12
811.80	217.81
812.12	217.90
812.43	218.26
812.75	218.55
813.07	218.43
813.39	218.62
813.71	218.50
814.03	217.90
814.35	217.88
814.67	216.90
814.98	216.62
815.30	216.43
815.62	215.95
815.94	214.33
816.26	214.50
816.58	214.19
816.89	214.31
817.21	213.83
817.53	214.05
817.85	214.17
818.17	213.88
818.48	212.74
818.80	213.14
819.12	212.67
819.44	212.14
819.76	211.74
820.07	211.86
820.39	212.05
820.71	212.36
821.03	212.33
821.34	212.19
821.66	212.64
821.98	212.95
822.30	213.07
822.61	214.40
822.93	214.24
823.25	214.21
823.57	214.21
823.88	214.48
824.20	214.40
824.52	214.86
824.83	214.67
825.15	214.90
825.47	214.81
825.79	215.07
826.10	214.79
826.42	214.83
826.74	215.05
827.05	214.74
827.37	214.64
827.69	214.62
828.00	214.88
828.32	214.57
828.64	214.24
828.95	215.36
829.27	214.98
829.58	214.88
829.90	215.19
830.22	215.26
830.53	214.81
830.85	214.60
831.17	213.93
831.48	214.00
831.80	213.98
832.11	213.79
832.43	213.71
832.75	213.98
833.06	215.33
833.38	214.19
833.69	214.24
834.01	214.43
834.32	214.31
834.64	213.83
834.96	213.86
835.27	213.81
835.59	213.10
835.90	212.48
836.22	212.57
836.53	212.48
836.85	212.36
837.16	214.48
837.48	214.57
837.79	215.33
838.11	215.69
838.42	215.55
838.74	215.69
839.05	215.36
839.37	215.38
839.68	213.93
840.00	214.14
840.31	214.33
840.63	214.02
840.94	213.90
841.26	213.90
841.57	213.83
841.88	214.00
842.20	213.55
842.51	213.38
842.83	213.33
843.14	215.02
843.46	215.02
843.77	213.79
844.08	213.76
844.40	213.07
844.71	212.83
845.03	212.69
845.34	212.52
845.65	212.67
845.97	212.64
846.28	213.12
846.60	213.21
846.91	212.86
847.22	212.90
847.54	213.50
847.85	213.88
848.16	214.00
848.48	213.57
848.79	214.79
849.10	215.02
849.42	215.10
849.73	213.14
850.04	212.83
850.36	212.10
850.67	212.31
850.98	212.69
851.30	212.83
851.61	212.88
851.92	212.86
852.23	213.55
852.55	213.45
852.86	213.29
853.17	213.64
853.49	214.17
853.80	214.38
854.11	214.45
854.42	214.69
854.74	214.19
855.05	214.31
855.36	213.02
855.67	213.14
855.99	213.02
856.30	215.74
856.61	216.00
856.92	215.93
857.23	215.98
857.55	215.50
857.86	215.40
858.17	215.79
858.48	215.90
858.79	215.29
859.11	215.64
859.42	215.45
859.73	215.12
860.04	214.95
860.35	214.52
860.66	213.67
860.98	213.48
861.29	213.83
861.60	213.74
861.91	214.40
862.22	214.14
862.53	214.14
862.84	211.57
863.16	212.05
863.47	211.74
863.78	211.50
864.09	211.71
864.40	211.81
864.71	211.69
865.02	211.60
865.33	211.31
865.64	210.90
865.95	211.17
866.27	212.43
866.58	212.05
866.89	212.26
867.20	212.50
867.51	212.12
867.82	211.90
868.13	212.55
868.44	211.93
868.75	212.36
869.06	212.45
869.37	212.76
869.68	211.95
869.99	212.55
870.30	212.79
870.61	213.02
870.92	212.69
871.23	212.52
871.54	212.79
871.85	213.45
872.16	213.98
872.47	213.76
872.78	212.69
873.09	213.10
873.40	213.02
873.71	212.93
874.02	213.10
874.33	212.98
874.64	212.57
874.95	213.02
875.26	212.40
875.56	212.21
875.87	211.90
876.18	211.88
876.49	213.83
876.80	213.86
877.11	213.40
877.42	213.52
877.73	213.71
878.04	213.62
878.35	213.50
878.66	213.38
878.96	213.31
879.27	213.14
879.58	212.90
879.89	212.83
880.20	213.74
880.51	213.50
880.82	213.57
881.12	213.50
881.43	213.19
881.74	213.17
882.05	213.10
882.36	213.21
882.67	213.43
882.97	211.19
883.28	210.81
883.59	210.93
883.90	211.31
884.21	211.48
884.51	211.31
884.82	210.98
885.13	210.81
885.44	210.76
885.74	210.76
886.05	210.76
886.36	210.74
886.67	209.90
886.98	211.10
887.28	211.26
887.59	211.33
887.90	211.50
888.20	211.52
888.51	211.93
888.82	211.74
889.13	211.76
889.43	213.40
889.74	213.33
890.05	213.36
890.35	212.88
890.66	212.67
890.97	212.40
891.28	212.24
891.58	212.26
891.89	212.31
892.20	212.40
892.50	212.19
892.81	212.12
893.12	212.14
893.42	211.24
893.73	211.38
894.04	211.31
894.34	211.38
894.65	211.29
894.95	211.00
895.26	211.10
895.57	212.12
895.87	210.36
896.18	210.81
896.48	210.55
896.79	210.45
897.10	210.60
897.40	210.67
897.71	210.88
898.01	210.76
898.32	211.02
898.63	210.90
898.93	211.14
899.24	211.21
899.54	211.10
899.85	210.98
900.15	210.83
900.46	211.02
900.76	211.24
901.07	211.10
901.38	211.12
901.68	211.12
901.99	210.29
902.29	210.57
902.60	210.19
902.90	210.33
903.21	210.50
903.51	210.55
903.82	210.90
904.12	211.17
904.43	211.40
904.73	211.45
905.03	211.52
905.34	213.60
905.64	213.60
905.95	213.69
906.25	213.67
906.56	213.50
906.86	213.31
907.17	213.12
907.47	213.33
907.77	213.29
908.08	213.05
908.38	213.14
908.69	213.14
908.99	213.64
909.30	213.50
909.60	213.52
909.90	213.26
910.21	212.95
910.51	212.52
910.81	212.45
911.12	212.33
911.42	212.38
911.73	210.14
912.03	210.33
912.33	210.79
912.64	210.69
912.94	210.74
913.24	210.55
913.55	210.36
913.85	210.24
914.15	210.43
914.46	210.88
914.76	210.60
915.06	210.45
915.37	210.21
915.67	210.48
915.97	210.31
916.27	210.07
916.58	210.07
916.88	209.88
917.18	209.81
917.49	211.33
917.79	211.10
918.09	211.45
918.39	211.95
918.70	211.79
919.00	211.86
919.30	212.74
919.60	212.71
919.91	212.52
920.21	212.67
920.51	212.36
920.81	212.21
921.12	212.45
921.42	212.52
921.72	212.62
922.02	212.62
922.32	213.14
922.63	213.40
922.93	214.55
923.23	214.81
923.53	214.62
923.83	213.17
924.13	213.64
924.44	213.74
924.74	213.79
925.04	214.14
925.34	214.24
925.64	213.45
925.94	213.62
926.24	214.60
926.55	214.40
926.85	214.76
927.15	214.76
927.45	214.86
927.75	214.86
928.05	214.90
928.35	214.71
928.65	214.76
928.95	214.90
929.26	214.12
929.56	214.52
929.86	214.93
930.16	214.79
930.46	214.52
930.76	214.55
931.06	213.62
931.36	213.10
931.66	213.52
931.96	213.83
932.26	213.93
932.56	213.33
932.86	213.74
933.16	213.79
933.46	213.67
933.76	213.36
934.06	213.95
934.36	214.52
934.66	214.74
934.96	214.60
935.26	214.57
935.56	214.74
935.86	214.24
936.16	213.93
936.46	213.81
936.76	213.62
937.06	213.38
937.36	213.55
937.66	213.71
937.96	213.50
938.26	213.05
938.56	212.90
938.86	212.93
939.16	213.02
939.46	213.12
939.76	213.21
940.06	213.38
940.35	212.62
940.65	211.62
940.95	211.62
941.25	211.07
941.55	210.81
941.85	210.76
942.15	211.14
942.45	211.57
942.75	211.60
943.04	211.81
943.34	212.21
943.64	211.98
943.94	211.64
944.24	211.64
944.54	211.71
944.84	211.60
945.13	211.40
945.43	211.14
945.73	211.00
946.03	210.86
946.33	210.48
946.62	210.26
946.92	210.17
947.22	210.24
947.52	210.64
947.82	210.90
948.11	210.43
948.41	210.10
948.71	209.55
949.01	209.50
949.31	209.19
949.60	208.90
949.90	209.26
950.20	209.21
950.50	209.26
950.79	209.12
951.09	209.60
951.39	209.60
951.69	209.45
951.98	209.98
952.28	209.83
952.58	210.02
952.87	210.31
953.17	210.52
953.47	210.14
953.76	209.93
954.06	209.67
954.36	209.55
954.66	209.40
954.95	210.10
955.25	210.40
955.55	210.86
955.84	210.60
956.14	210.86
956.44	210.95
956.73	210.50
957.03	210.81
957.32	210.64
957.62	210.48
957.92	210.79
958.21	210.29
958.51	213.00
958.81	212.98
959.10	213.19
959.40	213.90
959.69	214.36
959.99	214.74
960.29	214.86
960.58	215.00
960.88	215.71
961.17	215.33
961.47	215.45
961.76	215.17
962.06	215.52
962.36	215.33
962.65	215.19
962.95	215.45
963.24	215.14
963.54	215.17
963.83	215.48
964.13	215.48
964.42	215.12
964.72	213.31
965.01	213.45
965.31	213.14
965.60	212.29
965.90	213.48
966.19	212.88
966.49	212.83
966.78	212.67
967.08	212.83
967.37	212.86
967.67	212.43
967.96	212.88
968.26	212.69
968.55	212.76
968.85	213.05
969.14	212.90
969.43	213.05
969.73	212.81
970.02	212.52
970.32	212.24
970.61	212.17
970.91	211.50
971.20	211.12
971.49	211.10
971.79	211.50
972.08	209.90
972.38	210.24
972.67	210.36
972.96	210.83
973.26	210.19
973.55	210.81
973.85	210.71
974.14	210.33
974.43	210.62
974.73	210.24
975.02	210.05
975.31	210.14
975.61	210.00
975.90	209.76
976.19	209.67
976.49	209.98
976.78	210.40
977.07	210.50
977.37	210.67
977.66	210.90
977.95	210.69
978.24	210.93
978.54	211.38
978.83	211.12
979.12	210.67
979.42	210.71
979.71	210.29
980.00	210.31
980.29	210.40
980.59	209.93
980.88	210.40
981.17	210.45
981.46	210.45
981.76	210.55
982.05	211.26
982.34	211.36
982.63	211.12
982.93	210.93
983.22	211.36
983.51	211.57
983.80	211.76
984.09	211.95
984.39	211.86
984.68	211.50
984.97	211.81
985.26	211.74
985.55	211.57
985.85	211.43
986.14	211.79
986.43	211.93
986.72	211.90
987.01	211.45
987.30	211.26
987.59	211.07
987.89	210.98
988.18	210.50
988.47	210.52
988.76	210.40
989.05	210.21
989.34	209.86
989.63	210.40
989.92	210.31
990.22	209.88
990.51	209.76
990.80	209.50
991.09	209.43
991.38	209.57
991.67	209.71
991.96	209.29
992.25	209.33
992.54	209.24
992.83	209.14
993.12	209.14
993.41	209.55
993.70	210.40
993.99	210.95
994.28	211.05
994.58	211.36
994.87	211.33
995.16	211.29
995.45	211.12
995.74	210.17
996.03	210.36
996.32	210.88
996.61	211.55
996.90	211.76
997.19	211.62
997.48	211.88
997.77	211.52
998.06	211.64
998.34	211.29
998.63	211.26
998.92	211.36
999.21	211.64
999.50	211.79
999.79	211.07
1000.08	210.79
1000.37	210.81
1000.66	210.31
1000.95	210.74
1001.24	210.86
1001.53	211.26
1001.82	211.43
1002.11	210.83
1002.40	210.93
1002.68	211.19
1002.97	212.36
1003.26	212.14
1003.55	211.74
1003.84	212.14
1004.13	212.83
1004.42	212.86
1004.71	212.76
1004.99	212.71
1005.28	213.31
1005.57	213.02
1005.86	212.90
1006.15	212.83
1006.44	212.64
1006.72	213.05
1007.01	212.93
1007.30	212.86
1007.59	212.52
1007.88	212.38
1008.17	212.50
1008.45	211.98
1008.74	211.05
1009.03	210.17
1009.32	210.26
1009.60	210.29
1009.89	210.02
1010.18	209.26
1010.47	209.40
1010.76	209.12
1011.04	209.24
1011.33	209.29
1011.62	209.64
1011.91	209.79
1012.19	209.79
1012.48	209.79
1012.77	209.76
1013.05	210.40
1013.34	210.69
1013.63	210.43
1013.92	210.71
1014.20	210.60
1014.49	211.00
1014.78	211.29
1015.06	210.79
1015.35	210.86
1015.64	211.21
1015.92	211.43
1016.21	211.64
1016.50	211.60
1016.78	212.19
1017.07	212.05
1017.36	211.48
1017.64	210.95
1017.93	211.38
1018.22	211.24
1018.50	211.26
1018.79	211.14
1019.08	210.19
1019.36	210.14
1019.65	209.95
1019.93	210.38
1020.22	210.57
1020.51	211.45
1020.79	211.26
1021.08	207.00
1021.36	206.50
1021.65	210.50
1021.94	206.50
1022.22	211.50
1022.51	202.00
1022.79	220.00
1023.08	210.00
1023.36	235.00
1023.65	207.00
>>>>>End Processed Spectral Data<<<<<
