SpectraSuite Data File
++++++++++++++++++++++++++++++++++++
Date: Tue Apr 02 18:43:25 EDT 2013
User: group
Dark Spectrum Present: No
Reference Spectrum Present: No
Number of Sampled Component Spectra: 1
Spectrometers: USB2E7196
Integration Time (usec): 580000 (USB2E7196)
Spectra Averaged: 2 (USB2E7196)
Boxcar Smoothing: 10 (USB2E7196)
Correct for Electrical Dark: No (USB2E7196)
Strobe/Lamp Enabled: No (USB2E7196)
Correct for Detector Non-linearity: No (USB2E7196)
Correct for Stray Light: No (USB2E7196)
Number of Pixels in Processed Spectrum: 2048
>>>>>Begin Processed Spectral Data<<<<<
339.09	0.00
339.48	192.00
339.86	191.50
340.24	195.50
340.63	194.50
341.01	227.50
341.39	197.00
341.78	207.00
342.16	210.00
342.54	205.50
342.93	196.05
343.31	205.79
343.69	206.43
344.07	207.05
344.46	207.79
344.84	208.67
345.22	207.71
345.60	208.36
345.99	208.38
346.37	208.50
346.75	208.52
347.13	208.90
347.52	209.12
347.90	209.83
348.28	210.12
348.66	210.50
349.05	209.93
349.43	210.43
349.81	210.57
350.19	210.48
350.57	210.88
350.96	211.17
351.34	211.52
351.72	211.71
352.10	211.88
352.48	211.69
352.87	211.50
353.25	211.62
353.63	211.38
354.01	211.55
354.39	211.52
354.77	211.81
355.15	212.38
355.54	212.31
355.92	211.64
356.30	211.79
356.68	213.00
357.06	213.26
357.44	213.31
357.82	213.52
358.20	214.55
358.58	214.79
358.97	215.00
359.35	215.33
359.73	215.95
360.11	215.95
360.49	216.26
360.87	216.31
361.25	216.57
361.63	217.48
362.01	217.74
362.39	217.69
362.77	217.88
363.15	217.83
363.53	217.86
363.91	218.29
364.29	218.14
364.67	216.48
365.05	216.67
365.43	216.69
365.81	216.74
366.19	216.79
366.57	217.52
366.95	217.29
367.33	216.95
367.71	216.69
368.09	217.21
368.47	217.21
368.85	217.24
369.23	217.62
369.61	217.05
369.99	217.64
370.37	218.00
370.75	218.86
371.13	218.45
371.51	218.29
371.89	218.29
372.27	218.50
372.65	218.55
373.03	218.67
373.41	218.29
373.78	218.12
374.16	217.21
374.54	216.24
374.92	216.05
375.30	216.10
375.68	215.64
376.06	215.79
376.44	215.76
376.82	216.05
377.19	216.00
377.57	215.71
377.95	214.79
378.33	214.60
378.71	213.36
379.09	213.60
379.47	213.79
379.84	213.50
380.22	213.24
380.60	212.95
380.98	212.79
381.36	212.76
381.73	212.60
382.11	212.90
382.49	213.19
382.87	213.12
383.25	213.00
383.62	215.60
384.00	214.83
384.38	214.98
384.76	215.14
385.13	215.88
385.51	216.05
385.89	215.86
386.27	215.74
386.64	216.14
387.02	215.69
387.40	215.43
387.78	215.48
388.15	215.81
388.53	215.62
388.91	215.55
389.29	215.48
389.66	215.79
390.04	215.62
390.42	215.86
390.79	215.81
391.17	216.00
391.55	213.76
391.92	214.10
392.30	214.07
392.68	213.71
393.05	213.52
393.43	213.74
393.81	214.12
394.18	213.98
394.56	213.86
394.94	214.31
395.31	214.26
395.69	215.17
396.06	215.26
396.44	215.43
396.82	215.14
397.19	216.38
397.57	216.14
397.95	216.55
398.32	215.90
398.70	216.33
399.07	216.60
399.45	216.36
399.82	216.26
400.20	216.12
400.58	216.10
400.95	215.38
401.33	215.50
401.70	216.90
402.08	217.07
402.45	217.10
402.83	217.71
403.20	217.74
403.58	217.33
403.95	217.76
404.33	218.40
404.71	218.79
405.08	219.88
405.46	220.33
405.83	220.48
406.21	220.64
406.58	221.12
406.96	221.45
407.33	222.10
407.70	223.14
408.08	225.10
408.45	226.14
408.83	227.00
409.20	227.50
409.58	226.86
409.95	228.00
410.33	229.14
410.70	229.55
411.08	231.00
411.45	232.07
411.82	232.93
412.20	234.40
412.57	236.90
412.95	236.38
413.32	238.10
413.69	239.71
414.07	241.83
414.44	243.57
414.82	245.43
415.19	247.90
415.56	249.95
415.94	251.33
416.31	253.98
416.68	256.60
417.06	259.93
417.43	263.60
417.81	267.26
418.18	271.24
418.55	274.76
418.93	278.74
419.30	283.21
419.67	287.62
420.04	291.67
420.42	296.00
420.79	303.40
421.16	308.81
421.54	315.64
421.91	321.95
422.28	327.74
422.66	334.29
423.03	342.21
423.40	348.69
423.77	355.71
424.15	362.88
424.52	370.60
424.89	379.26
425.26	387.12
425.64	394.26
426.01	402.07
426.38	411.21
426.75	420.38
427.13	429.29
427.50	439.05
427.87	449.31
428.24	459.17
428.61	467.48
428.99	479.05
429.36	489.36
429.73	500.57
430.10	512.67
430.47	524.76
430.85	535.60
431.22	548.26
431.59	563.36
431.96	575.67
432.33	589.60
432.70	602.76
433.08	618.71
433.45	634.00
433.82	648.90
434.19	665.45
434.56	682.48
434.93	698.14
435.30	713.98
435.68	731.57
436.05	748.52
436.42	765.43
436.79	780.45
437.16	798.12
437.53	815.38
437.90	832.90
438.27	850.57
438.64	868.43
439.01	886.26
439.38	899.60
439.75	915.05
440.13	931.95
440.50	947.57
440.87	960.31
441.24	973.93
441.61	988.52
441.98	999.57
442.35	1011.62
442.72	1024.76
443.09	1038.14
443.46	1045.76
443.83	1052.31
444.20	1057.17
444.57	1063.98
444.94	1067.29
445.31	1070.67
445.68	1076.05
446.05	1077.36
446.42	1075.74
446.79	1073.90
447.16	1072.52
447.53	1070.71
447.90	1064.43
448.27	1058.31
448.64	1049.50
449.01	1043.14
449.37	1032.48
449.74	1021.45
450.11	1010.55
450.48	995.74
450.85	980.10
451.22	967.43
451.59	954.45
451.96	942.88
452.33	926.76
452.70	911.86
453.07	895.19
453.43	875.79
453.80	859.50
454.17	843.93
454.54	828.69
454.91	812.19
455.28	796.81
455.65	782.07
456.02	770.76
456.38	757.86
456.75	742.12
457.12	729.00
457.49	716.33
457.86	701.40
458.23	691.57
458.59	679.74
458.96	667.62
459.33	656.71
459.70	646.33
460.07	638.43
460.43	628.64
460.80	620.12
461.17	613.33
461.54	604.86
461.91	596.62
462.27	588.36
462.64	581.74
463.01	574.02
463.38	567.62
463.74	556.90
464.11	550.71
464.48	545.36
464.85	539.24
465.21	535.36
465.58	530.48
465.95	523.60
466.32	518.52
466.68	513.60
467.05	508.79
467.42	503.69
467.78	498.17
468.15	493.55
468.52	489.98
468.88	483.88
469.25	479.21
469.62	476.29
469.98	472.31
470.35	468.79
470.72	465.50
471.08	460.45
471.45	457.43
471.82	454.48
472.18	450.93
472.55	448.26
472.92	443.60
473.28	440.67
473.65	438.00
474.02	435.38
474.38	433.05
474.75	431.05
475.11	428.76
475.48	426.93
475.85	425.29
476.21	423.36
476.58	422.24
476.94	420.93
477.31	419.55
477.67	418.26
478.04	416.95
478.41	416.12
478.77	417.71
479.14	416.67
479.50	416.14
479.87	416.00
480.23	415.40
480.60	415.36
480.96	415.31
481.33	416.05
481.69	415.81
482.06	416.14
482.42	416.60
482.79	416.98
483.15	417.05
483.52	417.76
483.88	418.07
484.25	418.45
484.61	419.10
484.98	419.52
485.34	420.95
485.71	422.45
486.07	423.71
486.44	423.43
486.80	425.38
487.17	427.02
487.53	429.57
487.90	431.62
488.26	435.10
488.62	437.74
488.99	439.76
489.35	442.45
489.72	445.07
490.08	447.50
490.44	450.05
490.81	453.98
491.17	456.98
491.54	460.43
491.90	464.33
492.26	468.38
492.63	472.21
492.99	476.02
493.36	479.93
493.72	484.29
494.08	488.33
494.45	492.90
494.81	497.52
495.17	501.74
495.54	507.26
495.90	511.45
496.26	516.21
496.63	521.45
496.99	526.95
497.35	532.69
497.72	538.64
498.08	544.45
498.44	550.60
498.80	557.33
499.17	563.74
499.53	569.81
499.89	576.38
500.26	583.19
500.62	589.64
500.98	596.50
501.34	603.48
501.71	610.93
502.07	617.31
502.43	624.31
502.79	631.05
503.16	637.55
503.52	644.36
503.88	651.36
504.24	658.93
504.60	666.38
504.97	673.88
505.33	681.45
505.69	690.07
506.05	697.19
506.41	704.36
506.78	711.52
507.14	719.64
507.50	727.45
507.86	735.00
508.22	743.62
508.59	751.21
508.95	759.12
509.31	767.69
509.67	775.93
510.03	783.62
510.39	791.33
510.75	799.21
511.12	807.48
511.48	815.02
511.84	822.55
512.20	830.26
512.56	837.90
512.92	845.83
513.28	853.21
513.64	860.88
514.00	868.31
514.37	875.69
514.73	882.67
515.09	890.33
515.45	898.05
515.81	904.88
516.17	912.10
516.53	918.69
516.89	924.43
517.25	930.40
517.61	937.67
517.97	943.64
518.33	950.48
518.69	956.95
519.05	963.69
519.41	969.64
519.77	976.71
520.13	983.00
520.49	988.17
520.85	993.43
521.21	999.98
521.57	1006.00
521.93	1011.76
522.29	1017.38
522.65	1021.95
523.01	1027.17
523.37	1031.31
523.73	1036.12
524.09	1040.76
524.45	1045.21
524.81	1050.93
525.17	1055.90
525.53	1061.52
525.89	1066.33
526.25	1070.98
526.61	1075.93
526.97	1080.57
527.33	1084.48
527.68	1090.64
528.04	1094.95
528.40	1098.95
528.76	1102.88
529.12	1106.98
529.48	1112.29
529.84	1116.21
530.20	1120.69
530.56	1124.64
530.91	1129.29
531.27	1133.93
531.63	1138.43
531.99	1143.14
532.35	1147.33
532.71	1150.74
533.07	1155.07
533.42	1161.55
533.78	1165.19
534.14	1169.05
534.50	1173.10
534.86	1178.00
535.21	1180.50
535.57	1185.88
535.93	1190.33
536.29	1195.07
536.65	1198.88
537.00	1201.60
537.36	1205.02
537.72	1209.07
538.08	1212.52
538.44	1215.95
538.79	1219.52
539.15	1221.95
539.51	1225.02
539.87	1228.24
540.22	1231.86
540.58	1235.81
540.94	1236.79
541.29	1240.74
541.65	1244.05
542.01	1246.62
542.37	1248.50
542.72	1249.93
543.08	1251.48
543.44	1254.33
543.79	1255.10
544.15	1258.00
544.51	1261.50
544.87	1264.69
545.22	1267.10
545.58	1270.43
545.94	1273.19
546.29	1275.67
546.65	1279.14
547.01	1282.43
547.36	1285.40
547.72	1288.17
548.07	1289.95
548.43	1292.33
548.79	1293.93
549.14	1295.57
549.50	1298.90
549.86	1301.12
550.21	1304.90
550.57	1308.31
550.92	1310.71
551.28	1314.93
551.64	1318.48
551.99	1321.55
552.35	1324.00
552.70	1326.86
553.06	1329.64
553.41	1332.88
553.77	1337.21
554.13	1341.02
554.48	1344.62
554.84	1348.45
555.19	1352.50
555.55	1357.98
555.90	1361.29
556.26	1365.86
556.61	1369.74
556.97	1373.52
557.32	1377.07
557.68	1380.64
558.03	1384.38
558.39	1388.55
558.74	1391.76
559.10	1395.38
559.45	1399.05
559.81	1403.98
560.16	1407.98
560.52	1413.00
560.87	1417.38
561.23	1420.17
561.58	1426.43
561.94	1430.10
562.29	1433.40
562.64	1437.95
563.00	1440.88
563.35	1445.98
563.71	1450.83
564.06	1456.26
564.42	1461.76
564.77	1468.86
565.12	1475.29
565.48	1482.10
565.83	1487.71
566.19	1493.19
566.54	1498.74
566.89	1504.31
567.25	1511.10
567.60	1518.43
567.96	1525.57
568.31	1533.38
568.66	1539.88
569.02	1543.50
569.37	1549.45
569.72	1556.00
570.08	1561.10
570.43	1566.57
570.78	1572.71
571.14	1577.98
571.49	1583.88
571.84	1588.88
572.20	1593.36
572.55	1597.60
572.90	1600.48
573.26	1605.19
573.61	1610.36
573.96	1614.83
574.31	1619.02
574.67	1622.07
575.02	1625.19
575.37	1627.14
575.72	1628.71
576.08	1632.64
576.43	1636.10
576.78	1639.52
577.13	1643.38
577.49	1646.50
577.84	1650.95
578.19	1653.95
578.54	1657.50
578.90	1660.81
579.25	1664.33
579.60	1667.45
579.95	1670.86
580.30	1675.10
580.66	1679.00
581.01	1682.10
581.36	1684.90
581.71	1687.79
582.06	1692.50
582.42	1696.38
582.77	1699.07
583.12	1702.10
583.47	1705.55
583.82	1709.21
584.17	1713.02
584.53	1715.74
584.88	1719.38
585.23	1722.74
585.58	1725.07
585.93	1727.24
586.28	1729.48
586.63	1731.71
586.98	1734.02
587.34	1737.67
587.69	1739.64
588.04	1741.31
588.39	1744.12
588.74	1745.69
589.09	1748.33
589.44	1748.17
589.79	1750.19
590.14	1752.29
590.49	1754.10
590.84	1755.38
591.19	1757.21
591.54	1758.88
591.89	1760.36
592.25	1763.57
592.60	1763.38
592.95	1765.14
593.30	1767.31
593.65	1768.55
594.00	1769.76
594.35	1776.40
594.70	1776.19
595.05	1776.88
595.40	1778.07
595.75	1778.12
596.10	1780.17
596.45	1781.95
596.80	1783.02
597.15	1782.69
597.50	1783.62
597.85	1785.02
598.19	1785.38
598.54	1785.43
598.89	1785.71
599.24	1786.86
599.59	1784.86
599.94	1784.98
600.29	1784.79
600.64	1784.67
600.99	1784.29
601.34	1784.50
601.69	1778.71
602.04	1778.12
602.39	1777.79
602.74	1777.93
603.08	1777.67
603.43	1778.12
603.78	1776.43
604.13	1777.12
604.48	1775.93
604.83	1776.05
605.18	1776.29
605.53	1775.17
605.87	1773.76
606.22	1772.57
606.57	1770.83
606.92	1769.95
607.27	1769.62
607.62	1769.00
607.96	1768.07
608.31	1768.21
608.66	1767.10
609.01	1765.55
609.36	1764.83
609.70	1764.05
610.05	1761.14
610.40	1759.55
610.75	1756.76
611.10	1755.31
611.44	1752.02
611.79	1750.38
612.14	1747.83
612.49	1743.95
612.83	1740.95
613.18	1738.71
613.53	1735.36
613.88	1731.45
614.22	1728.55
614.57	1724.10
614.92	1720.74
615.27	1717.29
615.61	1712.62
615.96	1708.57
616.31	1705.95
616.65	1702.55
617.00	1699.88
617.35	1697.62
617.70	1693.93
618.04	1690.38
618.39	1685.90
618.74	1682.60
619.08	1678.76
619.43	1674.83
619.78	1671.52
620.12	1668.86
620.47	1665.62
620.82	1661.90
621.16	1658.19
621.51	1654.69
621.85	1651.38
622.20	1646.36
622.55	1641.10
622.89	1638.71
623.24	1635.83
623.59	1631.74
623.93	1627.74
624.28	1622.90
624.62	1620.21
624.97	1617.95
625.32	1613.93
625.66	1610.38
626.01	1605.64
626.35	1602.74
626.70	1598.29
627.04	1595.43
627.39	1591.71
627.73	1588.05
628.08	1584.45
628.43	1580.64
628.77	1575.86
629.12	1572.19
629.46	1569.12
629.81	1566.21
630.15	1560.24
630.50	1554.83
630.84	1550.26
631.19	1545.07
631.53	1540.38
631.88	1533.26
632.22	1526.21
632.57	1521.19
632.91	1516.02
633.26	1512.07
633.60	1505.69
633.95	1499.76
634.29	1493.45
634.64	1488.43
634.98	1482.71
635.32	1478.76
635.67	1475.12
636.01	1471.33
636.36	1465.64
636.70	1461.10
637.05	1456.43
637.39	1452.33
637.73	1448.33
638.08	1444.05
638.42	1439.67
638.77	1434.67
639.11	1429.86
639.45	1425.02
639.80	1419.40
640.14	1414.86
640.49	1409.12
640.83	1403.93
641.17	1400.24
641.52	1395.36
641.86	1390.24
642.20	1386.45
642.55	1379.62
642.89	1373.38
643.23	1367.12
643.58	1362.52
643.92	1355.95
644.26	1349.64
644.61	1344.50
644.95	1337.48
645.29	1330.19
645.64	1324.48
645.98	1318.74
646.32	1313.86
646.66	1307.60
647.01	1301.98
647.35	1296.24
647.69	1290.74
648.04	1284.64
648.38	1277.71
648.72	1271.31
649.06	1264.76
649.41	1256.86
649.75	1250.62
650.09	1244.45
650.43	1237.79
650.78	1231.24
651.12	1225.17
651.46	1218.95
651.80	1212.40
652.14	1206.50
652.49	1200.69
652.83	1193.93
653.17	1186.57
653.51	1178.90
653.85	1172.76
654.20	1166.19
654.54	1158.31
654.88	1151.29
655.22	1145.67
655.56	1138.90
655.90	1132.31
656.25	1125.14
656.59	1119.12
656.93	1113.05
657.27	1106.98
657.61	1100.17
657.95	1093.71
658.29	1087.05
658.64	1080.62
658.98	1072.98
659.32	1066.50
659.66	1060.40
660.00	1053.90
660.34	1048.07
660.68	1041.83
661.02	1035.38
661.36	1029.24
661.70	1024.19
662.05	1018.52
662.39	1012.43
662.73	1007.45
663.07	1002.36
663.41	996.55
663.75	990.12
664.09	984.05
664.43	977.83
664.77	972.12
665.11	965.83
665.45	959.74
665.79	953.55
666.13	948.14
666.47	942.48
666.81	935.95
667.15	929.40
667.49	924.33
667.83	920.38
668.17	914.67
668.51	908.81
668.85	903.00
669.19	898.33
669.53	892.38
669.87	886.45
670.21	879.33
670.55	873.64
670.89	869.31
671.23	863.93
671.57	858.00
671.91	852.93
672.25	848.02
672.58	843.38
672.92	837.76
673.26	832.21
673.60	826.57
673.94	821.55
674.28	817.10
674.62	811.64
674.96	805.36
675.30	800.19
675.64	795.24
675.97	790.02
676.31	784.10
676.65	778.95
676.99	774.57
677.33	770.05
677.67	765.19
678.01	759.29
678.34	754.24
678.68	750.17
679.02	745.00
679.36	739.55
679.70	734.36
680.04	730.10
680.37	725.05
680.71	720.29
681.05	715.83
681.39	710.86
681.73	706.02
682.06	701.19
682.40	697.38
682.74	693.31
683.08	689.33
683.42	684.31
683.75	679.48
684.09	673.86
684.43	669.55
684.77	664.69
685.10	659.95
685.44	655.43
685.78	650.07
686.12	646.10
686.45	641.33
686.79	637.10
687.13	632.88
687.46	628.86
687.80	625.02
688.14	620.52
688.48	616.62
688.81	612.07
689.15	608.43
689.49	603.93
689.82	599.17
690.16	593.95
690.50	589.98
690.83	586.31
691.17	581.90
691.51	577.74
691.84	573.95
692.18	570.21
692.52	566.55
692.85	563.26
693.19	560.07
693.52	556.36
693.86	552.38
694.20	548.36
694.53	544.74
694.87	540.67
695.21	536.62
695.54	533.05
695.88	529.10
696.21	524.48
696.55	520.79
696.88	517.02
697.22	514.17
697.56	510.98
697.89	507.45
698.23	504.86
698.56	501.38
698.90	498.36
699.23	494.76
699.57	491.12
699.90	487.33
700.24	483.02
700.58	479.95
700.91	476.81
701.25	475.17
701.58	472.90
701.92	470.45
702.25	467.81
702.59	464.45
702.92	461.86
703.26	459.26
703.59	456.67
703.93	455.83
704.26	452.55
704.60	449.48
704.93	446.21
705.26	442.95
705.60	440.52
705.93	437.12
706.27	435.00
706.60	432.74
706.94	431.02
707.27	428.29
707.61	425.52
707.94	422.64
708.27	418.36
708.61	414.86
708.94	412.12
709.28	409.55
709.61	407.05
709.94	404.67
710.28	402.43
710.61	399.71
710.95	395.07
711.28	394.36
711.61	392.02
711.95	390.17
712.28	387.64
712.61	385.02
712.95	384.31
713.28	382.93
713.61	380.36
713.95	377.93
714.28	376.21
714.61	374.48
714.95	372.81
715.28	370.83
715.61	369.00
715.95	367.19
716.28	365.14
716.61	363.26
716.95	360.90
717.28	358.79
717.61	356.81
717.94	355.24
718.28	351.88
718.61	349.95
718.94	348.19
719.27	346.62
719.61	345.02
719.94	342.36
720.27	339.50
720.60	337.71
720.94	336.02
721.27	334.36
721.60	333.33
721.93	331.83
722.27	331.00
722.60	329.43
722.93	327.55
723.26	326.40
723.59	325.00
723.93	324.21
724.26	323.12
724.59	321.74
724.92	320.90
725.25	320.38
725.59	319.07
725.92	318.12
726.25	316.88
726.58	315.93
726.91	314.81
727.24	314.29
727.57	313.38
727.91	311.57
728.24	310.88
728.57	309.19
728.90	308.19
729.23	306.48
729.56	306.38
729.89	305.48
730.22	304.36
730.55	303.24
730.89	301.88
731.22	300.74
731.55	299.93
731.88	298.64
732.21	297.17
732.54	296.07
732.87	294.90
733.20	294.31
733.53	293.38
733.86	292.40
734.19	291.05
734.52	290.57
734.85	291.17
735.18	289.69
735.51	289.57
735.84	288.98
736.17	288.64
736.50	286.98
736.83	288.21
737.16	287.36
737.49	286.83
737.82	286.05
738.15	285.55
738.48	284.64
738.81	283.67
739.14	282.76
739.47	282.07
739.80	280.98
740.13	280.33
740.46	279.29
740.79	278.57
741.12	277.60
741.45	276.48
741.78	274.95
742.11	274.76
742.44	273.71
742.77	273.21
743.10	272.29
743.43	271.24
743.75	268.48
744.08	270.05
744.41	268.95
744.74	268.24
745.07	267.07
745.40	266.81
745.73	267.40
746.06	266.74
746.39	266.24
746.71	265.88
747.04	264.40
747.37	263.57
747.70	262.98
748.03	262.57
748.36	262.24
748.68	261.43
749.01	260.40
749.34	259.74
749.67	258.98
750.00	258.74
750.33	259.88
750.65	259.71
750.98	256.81
751.31	256.36
751.64	255.88
751.97	256.81
752.29	255.88
752.62	254.26
752.95	253.71
753.28	253.29
753.60	252.67
753.93	253.21
754.26	252.90
754.59	252.12
754.91	251.26
755.24	250.69
755.57	249.88
755.90	249.36
756.22	248.69
756.55	248.00
756.88	247.05
757.20	245.02
757.53	243.79
757.86	243.45
758.19	243.21
758.51	242.83
758.84	241.10
759.17	240.67
759.49	240.36
759.82	241.07
760.15	240.64
760.47	240.14
760.80	239.19
761.13	239.36
761.45	239.02
761.78	238.74
762.11	238.14
762.43	237.93
762.76	237.50
763.08	237.43
763.41	237.24
763.74	237.10
764.06	237.12
764.39	237.29
764.71	236.90
765.04	236.29
765.37	235.93
765.69	235.67
766.02	235.31
766.34	234.90
766.67	233.86
767.00	234.05
767.32	234.88
767.65	235.76
767.97	234.98
768.30	234.79
768.62	234.71
768.95	234.31
769.27	234.29
769.60	234.57
769.92	234.12
770.25	233.45
770.57	232.79
770.90	232.50
771.22	231.76
771.55	231.71
771.87	231.52
772.20	231.24
772.52	232.81
772.85	235.17
773.17	235.40
773.50	234.98
773.82	234.40
774.15	233.45
774.47	232.05
774.80	232.17
775.12	231.90
775.45	231.71
775.77	231.95
776.09	231.69
776.42	231.38
776.74	231.81
777.07	231.64
777.39	231.64
777.72	231.14
778.04	231.19
778.36	230.79
778.69	230.76
779.01	230.83
779.33	228.74
779.66	226.29
779.98	225.76
780.31	225.62
780.63	226.21
780.95	226.12
781.28	226.05
781.60	225.52
781.92	225.57
782.25	225.57
782.57	225.24
782.89	225.02
783.22	224.71
783.54	224.10
783.86	223.98
784.19	223.79
784.51	224.40
784.83	224.05
785.16	223.93
785.48	223.90
785.80	223.67
786.12	223.76
786.45	223.67
786.77	223.67
787.09	223.76
787.42	222.90
787.74	222.95
788.06	222.88
788.38	222.74
788.71	222.26
789.03	222.07
789.35	222.21
789.67	222.05
789.99	221.90
790.32	221.83
790.64	222.19
790.96	223.62
791.28	222.98
791.61	223.02
791.93	223.02
792.25	222.90
792.57	224.36
792.89	223.76
793.21	223.95
793.54	223.71
793.86	223.29
794.18	223.55
794.50	223.05
794.82	222.83
795.14	223.24
795.47	223.64
795.79	223.55
796.11	222.88
796.43	222.64
796.75	222.81
797.07	222.60
797.39	222.38
797.71	221.02
798.04	220.64
798.36	220.60
798.68	220.57
799.00	220.74
799.32	219.38
799.64	219.98
799.96	219.67
800.28	220.02
800.60	219.83
800.92	219.95
801.24	219.86
801.56	220.07
801.89	219.67
802.21	219.93
802.53	219.62
802.85	220.17
803.17	221.19
803.49	220.76
803.81	220.60
804.13	220.43
804.45	220.14
804.77	220.45
805.09	220.31
805.41	220.05
805.73	219.62
806.05	219.24
806.37	219.00
806.69	218.83
807.01	218.50
807.33	218.86
807.65	217.95
807.97	219.02
808.28	218.86
808.60	218.95
808.92	218.38
809.24	219.74
809.56	219.31
809.88	218.31
810.20	218.48
810.52	218.88
810.84	218.45
811.16	218.26
811.48	218.14
811.80	218.79
812.12	218.90
812.43	219.24
812.75	219.55
813.07	219.55
813.39	219.62
813.71	219.38
814.03	219.02
814.35	219.12
814.67	218.07
814.98	217.86
815.30	217.43
815.62	217.31
815.94	215.57
816.26	215.74
816.58	215.38
816.89	215.55
817.21	215.14
817.53	215.52
817.85	215.71
818.17	215.62
818.48	214.93
818.80	215.07
819.12	214.81
819.44	214.29
819.76	213.90
820.07	213.90
820.39	213.71
820.71	213.71
821.03	213.90
821.34	214.07
821.66	214.38
821.98	214.81
822.30	214.74
822.61	216.48
822.93	216.17
823.25	216.17
823.57	215.95
823.88	216.26
824.20	216.17
824.52	216.40
824.83	216.26
825.15	216.10
825.47	216.07
825.79	215.95
826.10	215.93
826.42	215.90
826.74	216.07
827.05	216.05
827.37	216.07
827.69	215.90
828.00	215.76
828.32	215.62
828.64	215.38
828.95	216.36
829.27	215.43
829.58	215.62
829.90	216.17
830.22	216.10
830.53	215.57
830.85	215.26
831.17	214.90
831.48	215.24
831.80	215.43
832.11	215.10
832.43	215.00
832.75	215.07
833.06	216.19
833.38	215.64
833.69	215.76
834.01	215.60
834.32	215.50
834.64	215.24
834.96	215.33
835.27	215.19
835.59	214.45
835.90	214.00
836.22	213.93
836.53	213.43
836.85	213.40
837.16	215.43
837.48	215.40
837.79	215.81
838.11	215.95
838.42	215.81
838.74	216.24
839.05	216.05
839.37	215.90
839.68	214.67
840.00	214.48
840.31	214.62
840.63	214.90
840.94	214.55
841.26	214.48
841.57	214.50
841.88	214.86
842.20	214.62
842.51	214.62
842.83	214.50
843.14	216.36
843.46	216.31
843.77	215.12
844.08	215.19
844.40	214.50
844.71	213.90
845.03	213.83
845.34	213.52
845.65	213.71
845.97	213.76
846.28	214.05
846.60	214.26
846.91	214.00
847.22	213.67
847.54	214.19
847.85	214.21
848.16	213.79
848.48	213.31
848.79	214.19
849.10	214.36
849.42	214.38
849.73	212.67
850.04	212.50
850.36	211.71
850.67	211.93
850.98	212.33
851.30	212.62
851.61	212.55
851.92	212.52
852.23	212.93
852.55	213.17
852.86	213.07
853.17	213.24
853.49	213.69
853.80	214.26
854.11	214.52
854.42	214.83
854.74	214.74
855.05	214.86
855.36	213.81
855.67	213.93
855.99	214.26
856.30	216.69
856.61	216.69
856.92	216.86
857.23	217.05
857.55	216.88
857.86	216.67
858.17	217.05
858.48	216.67
858.79	216.33
859.11	216.40
859.42	216.31
859.73	216.02
860.04	215.93
860.35	215.31
860.66	214.64
860.98	214.69
861.29	214.98
861.60	214.88
861.91	215.55
862.22	215.00
862.53	214.52
862.84	211.81
863.16	212.33
863.47	212.05
863.78	211.64
864.09	211.69
864.40	211.90
864.71	211.83
865.02	212.31
865.33	212.00
865.64	211.55
865.95	211.50
866.27	212.95
866.58	212.40
866.89	212.71
867.20	212.55
867.51	212.10
867.82	211.95
868.13	212.60
868.44	211.98
868.75	212.74
869.06	212.76
869.37	213.05
869.68	212.43
869.99	212.86
870.30	213.07
870.61	213.05
870.92	212.79
871.23	212.79
871.54	212.81
871.85	213.33
872.16	213.64
872.47	213.55
872.78	212.33
873.09	212.93
873.40	212.69
873.71	212.95
874.02	212.98
874.33	212.55
874.64	212.19
874.95	212.64
875.26	211.93
875.56	212.12
875.87	212.12
876.18	212.12
876.49	214.07
876.80	213.88
877.11	213.62
877.42	213.76
877.73	213.64
878.04	213.31
878.35	213.31
878.66	213.31
878.96	213.33
879.27	213.12
879.58	213.19
879.89	212.98
880.20	213.52
880.51	213.55
880.82	214.07
881.12	214.02
881.43	213.48
881.74	213.45
882.05	213.24
882.36	213.10
882.67	213.24
882.97	210.93
883.28	210.90
883.59	210.86
883.90	211.21
884.21	211.50
884.51	211.38
884.82	210.88
885.13	210.81
885.44	210.86
885.74	210.79
886.05	210.45
886.36	210.83
886.67	210.02
886.98	210.95
887.28	210.86
887.59	210.88
887.90	210.90
888.20	210.88
888.51	211.26
888.82	211.10
889.13	211.29
889.43	212.90
889.74	212.79
890.05	212.98
890.35	212.52
890.66	212.26
890.97	212.26
891.28	212.19
891.58	212.43
891.89	212.31
892.20	212.31
892.50	212.21
892.81	211.98
893.12	212.14
893.42	211.17
893.73	211.40
894.04	211.55
894.34	211.95
894.65	211.83
894.95	211.67
895.26	211.90
895.57	212.64
895.87	210.83
896.18	210.98
896.48	211.07
896.79	211.29
897.10	211.50
897.40	211.57
897.71	211.90
898.01	211.79
898.32	212.05
898.63	212.02
898.93	212.14
899.24	212.19
899.54	212.17
899.85	212.36
900.15	212.10
900.46	211.81
900.76	212.02
901.07	212.00
901.38	211.88
901.68	212.02
901.99	210.95
902.29	211.19
902.60	211.19
902.90	211.17
903.21	210.90
903.51	210.90
903.82	211.57
904.12	211.67
904.43	211.67
904.73	211.64
905.03	211.81
905.34	213.76
905.64	213.64
905.95	213.43
906.25	213.29
906.56	213.10
906.86	213.00
907.17	212.64
907.47	212.81
907.77	212.50
908.08	212.07
908.38	212.52
908.69	212.62
908.99	212.88
909.30	213.10
909.60	213.26
909.90	213.31
910.21	212.55
910.51	212.31
910.81	212.29
911.12	212.60
911.42	212.33
911.73	210.24
912.03	210.36
912.33	210.98
912.64	210.98
912.94	211.19
913.24	210.98
913.55	210.71
913.85	210.86
914.15	211.17
914.46	211.45
914.76	211.12
915.06	211.00
915.37	210.71
915.67	210.24
915.97	210.21
916.27	209.48
916.58	209.57
916.88	209.36
917.18	209.31
917.49	210.36
917.79	210.52
918.09	210.90
918.39	211.60
918.70	211.45
919.00	211.55
919.30	212.50
919.60	212.71
919.91	212.64
920.21	212.48
920.51	212.17
920.81	211.95
921.12	212.21
921.42	212.14
921.72	212.48
922.02	212.64
922.32	212.98
922.63	213.33
922.93	214.62
923.23	214.76
923.53	214.60
923.83	213.10
924.13	213.38
924.44	213.21
924.74	213.26
925.04	213.76
925.34	213.64
925.64	212.60
925.94	212.57
926.24	213.62
926.55	213.45
926.85	213.81
927.15	213.95
927.45	213.93
927.75	213.90
928.05	213.76
928.35	213.81
928.65	213.86
928.95	214.02
929.26	213.12
929.56	213.45
929.86	213.81
930.16	213.93
930.46	213.67
930.76	213.76
931.06	212.57
931.36	211.86
931.66	212.33
931.96	212.71
932.26	212.67
932.56	211.83
932.86	212.14
933.16	212.33
933.46	212.19
933.76	212.00
934.06	212.60
934.36	213.62
934.66	213.31
934.96	213.12
935.26	213.26
935.56	213.50
935.86	212.98
936.16	212.57
936.46	212.33
936.76	212.05
937.06	211.83
937.36	212.38
937.66	212.57
937.96	212.21
938.26	211.71
938.56	211.55
938.86	211.81
939.16	212.26
939.46	212.26
939.76	212.55
940.06	212.40
940.35	211.88
940.65	210.45
940.95	210.69
941.25	210.31
941.55	209.98
941.85	209.81
942.15	210.21
942.45	210.98
942.75	210.90
943.04	211.36
943.34	211.50
943.64	211.19
943.94	210.90
944.24	210.93
944.54	211.14
944.84	211.14
945.13	210.67
945.43	210.12
945.73	210.14
946.03	209.93
946.33	209.69
946.62	209.52
946.92	209.60
947.22	209.83
947.52	210.02
947.82	210.29
948.11	210.05
948.41	209.79
948.71	209.07
949.01	209.40
949.31	209.12
949.60	209.14
949.90	209.60
950.20	209.60
950.50	209.93
950.79	209.81
951.09	210.12
951.39	210.24
951.69	210.17
951.98	210.48
952.28	210.40
952.58	210.62
952.87	210.86
953.17	211.05
953.47	210.64
953.76	210.50
954.06	210.12
954.36	209.86
954.66	209.88
954.95	210.38
955.25	210.45
955.55	210.67
955.84	210.43
956.14	210.48
956.44	210.55
956.73	210.00
957.03	210.14
957.32	210.05
957.62	209.81
957.92	210.21
958.21	209.81
958.51	212.36
958.81	212.60
959.10	212.74
959.40	212.98
959.69	213.36
959.99	213.88
960.29	213.93
960.58	213.90
960.88	214.36
961.17	214.10
961.47	214.10
961.76	214.02
962.06	214.38
962.36	214.12
962.65	214.12
962.95	214.19
963.24	213.98
963.54	214.19
963.83	214.60
964.13	214.52
964.42	213.95
964.72	212.21
965.01	212.26
965.31	212.00
965.60	211.76
965.90	212.98
966.19	212.45
966.49	212.71
966.78	212.76
967.08	212.83
967.37	212.83
967.67	212.52
967.96	212.79
968.26	212.52
968.55	212.93
968.85	212.76
969.14	212.71
969.43	212.67
969.73	212.43
970.02	212.07
970.32	212.00
970.61	212.21
970.91	211.52
971.20	211.05
971.49	210.88
971.79	211.14
972.08	209.64
972.38	209.69
972.67	209.69
972.96	210.12
973.26	209.60
973.55	210.33
973.85	210.50
974.14	210.43
974.43	210.48
974.73	209.93
975.02	209.95
975.31	210.07
975.61	209.98
975.90	209.86
976.19	210.05
976.49	210.10
976.78	210.24
977.07	210.07
977.37	210.21
977.66	210.43
977.95	210.02
978.24	210.02
978.54	210.60
978.83	210.24
979.12	210.02
979.42	210.19
979.71	209.69
980.00	209.55
980.29	209.67
980.59	209.26
980.88	210.10
981.17	210.17
981.46	210.31
981.76	210.40
982.05	211.02
982.34	210.90
982.63	210.98
982.93	211.10
983.22	211.69
983.51	211.71
983.80	211.93
984.09	212.14
984.39	212.07
984.68	211.69
984.97	211.76
985.26	211.40
985.55	211.67
985.85	211.24
986.14	211.64
986.43	211.57
986.72	211.67
987.01	210.88
987.30	210.93
987.59	210.74
987.89	210.93
988.18	210.43
988.47	210.45
988.76	210.29
989.05	209.93
989.34	209.64
989.63	210.45
989.92	210.14
990.22	210.05
990.51	210.02
990.80	210.00
991.09	210.33
991.38	210.74
991.67	210.50
991.96	210.10
992.25	210.12
992.54	209.76
992.83	210.10
993.12	210.02
993.41	210.07
993.70	210.81
993.99	211.29
994.28	211.36
994.58	211.71
994.87	211.43
995.16	211.40
995.45	211.21
995.74	210.31
996.03	210.83
996.32	211.12
996.61	211.69
996.90	211.48
997.19	211.38
997.48	211.38
997.77	211.12
998.06	211.60
998.34	211.40
998.63	211.60
998.92	211.36
999.21	211.76
999.50	212.02
999.79	211.38
1000.08	211.29
1000.37	211.40
1000.66	211.26
1000.95	211.83
1001.24	212.05
1001.53	212.43
1001.82	212.38
1002.11	211.76
1002.40	212.05
1002.68	212.29
1002.97	213.90
1003.26	213.62
1003.55	213.36
1003.84	213.57
1004.13	214.45
1004.42	214.21
1004.71	214.24
1004.99	214.17
1005.28	214.67
1005.57	214.36
1005.86	214.12
1006.15	213.86
1006.44	213.74
1006.72	213.81
1007.01	213.19
1007.30	213.05
1007.59	213.12
1007.88	213.36
1008.17	213.55
1008.45	213.14
1008.74	212.36
1009.03	211.38
1009.32	211.29
1009.60	211.21
1009.89	211.29
1010.18	210.07
1010.47	210.17
1010.76	210.05
1011.04	209.95
1011.33	209.98
1011.62	210.33
1011.91	210.79
1012.19	210.71
1012.48	210.64
1012.77	210.69
1013.05	211.74
1013.34	211.86
1013.63	211.67
1013.92	211.67
1014.20	211.40
1014.49	211.52
1014.78	211.79
1015.06	210.98
1015.35	211.10
1015.64	211.55
1015.92	211.67
1016.21	212.05
1016.50	211.90
1016.78	212.29
1017.07	212.60
1017.36	211.95
1017.64	211.55
1017.93	211.64
1018.22	211.57
1018.50	211.55
1018.79	211.50
1019.08	210.71
1019.36	210.86
1019.65	210.45
1019.93	210.83
1020.22	211.24
1020.51	212.14
1020.79	211.79
1021.08	209.00
1021.36	207.50
1021.65	213.50
1021.94	210.50
1022.22	211.50
1022.51	205.00
1022.79	217.50
1023.08	213.00
1023.36	235.00
1023.65	204.00
>>>>>End Processed Spectral Data<<<<<
