SpectraSuite Data File
++++++++++++++++++++++++++++++++++++
Date: Tue Apr 02 18:41:46 EDT 2013
User: group
Dark Spectrum Present: No
Reference Spectrum Present: No
Number of Sampled Component Spectra: 1
Spectrometers: USB2E7196
Integration Time (usec): 580000 (USB2E7196)
Spectra Averaged: 2 (USB2E7196)
Boxcar Smoothing: 10 (USB2E7196)
Correct for Electrical Dark: No (USB2E7196)
Strobe/Lamp Enabled: No (USB2E7196)
Correct for Detector Non-linearity: No (USB2E7196)
Correct for Stray Light: No (USB2E7196)
Number of Pixels in Processed Spectrum: 2048
>>>>>Begin Processed Spectral Data<<<<<
339.09	0.00
339.48	194.00
339.86	194.00
340.24	193.00
340.63	197.00
341.01	227.00
341.39	196.50
341.78	202.00
342.16	207.50
342.54	206.00
342.93	195.98
343.31	205.74
343.69	206.21
344.07	206.69
344.46	207.55
344.84	208.40
345.22	207.36
345.60	207.98
345.99	208.36
346.37	208.45
346.75	208.40
347.13	208.43
347.52	208.64
347.90	209.38
348.28	209.60
348.66	210.26
349.05	209.90
349.43	210.19
349.81	210.36
350.19	210.50
350.57	210.83
350.96	211.14
351.34	211.40
351.72	211.45
352.10	211.83
352.48	211.86
352.87	211.57
353.25	211.76
353.63	211.71
354.01	211.69
354.39	211.69
354.77	211.90
355.15	212.79
355.54	212.71
355.92	211.93
356.30	212.00
356.68	213.05
357.06	213.21
357.44	212.90
357.82	212.98
358.20	213.90
358.58	213.83
358.97	214.12
359.35	214.48
359.73	215.10
360.11	214.93
360.49	214.95
360.87	215.12
361.25	215.38
361.63	216.14
362.01	216.43
362.39	216.57
362.77	216.76
363.15	216.45
363.53	216.31
363.91	216.86
364.29	216.98
364.67	215.12
365.05	214.95
365.43	215.33
365.81	215.69
366.19	215.98
366.57	216.86
366.95	216.69
367.33	216.31
367.71	216.14
368.09	216.67
368.47	216.93
368.85	216.79
369.23	217.29
369.61	216.67
369.99	217.14
370.37	217.19
370.75	218.21
371.13	217.76
371.51	217.64
371.89	217.57
372.27	217.52
372.65	217.79
373.03	217.90
373.41	217.83
373.78	217.74
374.16	216.67
374.54	215.76
374.92	215.62
375.30	215.57
375.68	215.45
376.06	215.52
376.44	215.29
376.82	215.57
377.19	215.36
377.57	215.17
377.95	214.43
378.33	214.55
378.71	213.12
379.09	213.31
379.47	213.57
379.84	213.45
380.22	213.55
380.60	213.12
380.98	213.12
381.36	213.00
381.73	212.57
382.11	212.88
382.49	212.93
382.87	212.67
383.25	212.83
383.62	215.26
384.00	214.69
384.38	214.74
384.76	215.02
385.13	215.60
385.51	215.81
385.89	215.74
386.27	215.62
386.64	216.10
387.02	216.00
387.40	215.60
387.78	215.71
388.15	215.67
388.53	215.67
388.91	215.67
389.29	215.48
389.66	215.83
390.04	215.48
390.42	215.98
390.79	216.17
391.17	215.90
391.55	213.48
391.92	213.71
392.30	214.07
392.68	213.60
393.05	213.62
393.43	213.55
393.81	213.69
394.18	213.36
394.56	213.24
394.94	213.79
395.31	213.95
395.69	214.40
396.06	214.62
396.44	214.86
396.82	214.64
397.19	215.93
397.57	215.95
397.95	216.29
398.32	215.79
398.70	215.88
399.07	216.69
399.45	216.69
399.82	216.55
400.20	216.12
400.58	216.19
400.95	215.45
401.33	215.90
401.70	217.52
402.08	217.93
402.45	218.17
402.83	218.69
403.20	219.00
403.58	218.67
403.95	218.95
404.33	219.40
404.71	219.74
405.08	220.74
405.46	220.88
405.83	221.10
406.21	221.38
406.58	221.93
406.96	222.17
407.33	222.76
407.70	223.64
408.08	225.86
408.45	226.81
408.83	227.74
409.20	228.07
409.58	227.55
409.95	228.57
410.33	229.50
410.70	229.60
411.08	230.64
411.45	231.79
411.82	232.79
412.20	234.60
412.57	237.02
412.95	236.79
413.32	238.45
413.69	240.02
414.07	241.76
414.44	243.38
414.82	245.38
415.19	247.74
415.56	250.02
415.94	251.29
416.31	254.10
416.68	257.10
417.06	260.50
417.43	264.05
417.81	267.62
418.18	271.36
418.55	275.33
418.93	279.74
419.30	284.45
419.67	288.74
420.04	293.02
420.42	297.14
420.79	304.38
421.16	310.50
421.54	317.52
421.91	323.60
422.28	329.79
422.66	336.10
423.03	344.24
423.40	351.10
423.77	358.24
424.15	365.33
424.52	373.02
424.89	381.57
425.26	389.33
425.64	396.52
426.01	404.50
426.38	413.19
426.75	422.67
427.13	431.95
427.50	442.29
427.87	452.33
428.24	462.67
428.61	471.12
428.99	482.67
429.36	493.43
429.73	505.21
430.10	517.24
430.47	529.74
430.85	540.17
431.22	552.95
431.59	568.12
431.96	580.98
432.33	595.12
432.70	608.67
433.08	624.74
433.45	641.33
433.82	657.57
434.19	675.52
434.56	692.38
434.93	708.50
435.30	724.33
435.68	742.60
436.05	760.48
436.42	778.05
436.79	793.36
437.16	810.40
437.53	828.38
437.90	846.17
438.27	863.71
438.64	882.83
439.01	900.60
439.38	915.10
439.75	930.76
440.13	948.38
440.50	964.88
440.87	978.43
441.24	991.95
441.61	1006.86
441.98	1016.93
442.35	1029.48
442.72	1042.52
443.09	1055.93
443.46	1063.33
443.83	1068.74
444.20	1073.57
444.57	1079.64
444.94	1082.64
445.31	1086.93
445.68	1092.98
446.05	1095.26
446.42	1093.88
446.79	1092.26
447.16	1089.38
447.53	1088.38
447.90	1081.60
448.27	1075.12
448.64	1066.38
449.01	1059.21
449.37	1047.93
449.74	1037.40
450.11	1025.69
450.48	1010.93
450.85	995.12
451.22	982.38
451.59	970.10
451.96	958.40
452.33	943.14
452.70	929.64
453.07	911.86
453.43	891.83
453.80	874.24
454.17	857.90
454.54	842.38
454.91	826.29
455.28	809.33
455.65	793.95
456.02	782.26
456.38	769.24
456.75	753.86
457.12	740.02
457.49	726.52
457.86	712.00
458.23	701.64
458.59	690.17
458.96	678.14
459.33	667.24
459.70	656.00
460.07	647.62
460.43	637.57
460.80	628.33
461.17	620.88
461.54	612.55
461.91	604.36
462.27	595.43
462.64	587.90
463.01	580.29
463.38	573.74
463.74	562.57
464.11	556.10
464.48	550.14
464.85	543.60
465.21	539.60
465.58	534.50
465.95	527.29
466.32	521.79
466.68	515.76
467.05	510.43
467.42	505.62
467.78	499.83
468.15	494.69
468.52	490.83
468.88	485.17
469.25	480.48
469.62	476.98
469.98	473.33
470.35	470.26
470.72	467.07
471.08	462.40
471.45	459.67
471.82	456.55
472.18	453.10
472.55	450.69
472.92	446.88
473.28	443.86
473.65	441.05
474.02	438.36
474.38	436.90
474.75	434.74
475.11	432.05
475.48	430.43
475.85	428.93
476.21	427.31
476.58	426.07
476.94	425.00
477.31	423.50
477.67	422.31
478.04	420.76
478.41	419.60
478.77	420.83
479.14	419.90
479.50	418.93
479.87	418.45
480.23	418.33
480.60	418.07
480.96	417.93
481.33	418.88
481.69	418.57
482.06	418.43
482.42	419.29
482.79	420.05
483.15	420.17
483.52	421.02
483.88	421.48
484.25	422.19
484.61	422.93
484.98	423.76
485.34	425.52
485.71	427.36
486.07	428.98
486.44	428.57
486.80	429.50
487.17	431.21
487.53	433.93
487.90	436.17
488.26	439.10
488.62	441.71
488.99	443.45
489.35	446.02
489.72	448.88
490.08	451.14
490.44	453.74
490.81	456.81
491.17	459.55
491.54	463.12
491.90	466.50
492.26	470.19
492.63	473.93
492.99	477.33
493.36	481.29
493.72	485.17
494.08	489.81
494.45	495.45
494.81	500.31
495.17	504.33
495.54	509.36
495.90	513.57
496.26	518.57
496.63	524.33
496.99	529.86
497.35	535.64
497.72	541.71
498.08	548.07
498.44	554.98
498.80	561.79
499.17	567.93
499.53	574.29
499.89	581.33
500.26	588.33
500.62	595.17
500.98	602.12
501.34	609.60
501.71	616.95
502.07	623.57
502.43	630.60
502.79	637.93
503.16	644.74
503.52	652.79
503.88	660.07
504.24	667.81
504.60	676.02
504.97	684.10
505.33	691.36
505.69	700.17
506.05	707.40
506.41	714.64
506.78	722.71
507.14	730.33
507.50	738.31
507.86	746.26
508.22	754.12
508.59	761.71
508.95	769.81
509.31	778.57
509.67	786.71
510.03	793.98
510.39	801.90
510.75	809.57
511.12	817.40
511.48	825.17
511.84	832.52
512.20	840.26
512.56	848.29
512.92	856.69
513.28	863.33
513.64	871.12
514.00	878.79
514.37	886.74
514.73	894.48
515.09	902.00
515.45	908.95
515.81	916.64
516.17	924.33
516.53	930.90
516.89	936.81
517.25	943.67
517.61	951.50
517.97	958.12
518.33	965.36
518.69	971.74
519.05	979.12
519.41	985.64
519.77	993.52
520.13	998.86
520.49	1004.60
520.85	1010.17
521.21	1016.60
521.57	1023.00
521.93	1027.60
522.29	1033.05
522.65	1037.93
523.01	1043.57
523.37	1048.43
523.73	1053.64
524.09	1059.21
524.45	1063.83
524.81	1068.43
525.17	1073.52
525.53	1078.60
525.89	1084.05
526.25	1088.74
526.61	1092.19
526.97	1096.55
527.33	1100.40
527.68	1107.29
528.04	1112.02
528.40	1116.62
528.76	1120.88
529.12	1124.95
529.48	1130.43
529.84	1135.00
530.20	1139.83
530.56	1144.36
530.91	1149.26
531.27	1153.67
531.63	1158.48
531.99	1163.21
532.35	1167.71
532.71	1172.05
533.07	1177.21
533.42	1183.36
533.78	1188.17
534.14	1193.62
534.50	1198.24
534.86	1202.64
535.21	1204.19
535.57	1208.48
535.93	1213.57
536.29	1218.60
536.65	1223.07
537.00	1226.00
537.36	1229.95
537.72	1233.48
538.08	1237.17
538.44	1240.74
538.79	1244.62
539.15	1247.19
539.51	1250.90
539.87	1255.26
540.22	1258.88
540.58	1261.69
540.94	1262.98
541.29	1266.76
541.65	1269.48
542.01	1273.05
542.37	1275.64
542.72	1279.00
543.08	1281.67
543.44	1284.79
543.79	1286.71
544.15	1289.71
544.51	1294.55
544.87	1297.81
545.22	1300.83
545.58	1304.33
545.94	1306.98
546.29	1310.05
546.65	1313.05
547.01	1316.29
547.36	1319.07
547.72	1321.38
548.07	1324.64
548.43	1327.64
548.79	1329.50
549.14	1331.79
549.50	1334.86
549.86	1337.33
550.21	1340.12
550.57	1344.33
550.92	1346.55
551.28	1349.57
551.64	1352.71
551.99	1355.52
552.35	1358.81
552.70	1362.00
553.06	1365.43
553.41	1369.12
553.77	1374.29
554.13	1378.79
554.48	1383.64
554.84	1387.90
555.19	1393.14
555.55	1398.21
555.90	1401.95
556.26	1406.31
556.61	1411.10
556.97	1414.62
557.32	1418.36
557.68	1423.10
558.03	1426.55
558.39	1431.02
558.74	1436.12
559.10	1440.55
559.45	1444.52
559.81	1449.52
560.16	1453.43
560.52	1458.26
560.87	1463.29
561.23	1466.36
561.58	1472.38
561.94	1475.93
562.29	1480.07
562.64	1485.24
563.00	1488.79
563.35	1493.48
563.71	1499.00
564.06	1505.10
564.42	1510.60
564.77	1516.38
565.12	1522.71
565.48	1530.14
565.83	1536.00
566.19	1540.90
566.54	1546.64
566.89	1552.55
567.25	1558.74
567.60	1566.52
567.96	1573.33
568.31	1579.88
568.66	1585.95
569.02	1589.29
569.37	1594.19
569.72	1599.62
570.08	1603.81
570.43	1608.52
570.78	1614.26
571.14	1619.17
571.49	1623.21
571.84	1627.90
572.20	1632.95
572.55	1636.95
572.90	1639.86
573.26	1644.07
573.61	1648.24
573.96	1652.71
574.31	1656.64
574.67	1660.60
575.02	1663.62
575.37	1666.60
575.72	1668.60
576.08	1672.43
576.43	1676.93
576.78	1680.71
577.13	1684.83
577.49	1687.90
577.84	1692.67
578.19	1696.48
578.54	1700.10
578.90	1703.62
579.25	1707.07
579.60	1709.93
579.95	1712.86
580.30	1716.02
580.66	1719.19
581.01	1722.38
581.36	1724.98
581.71	1727.48
582.06	1731.62
582.42	1735.36
582.77	1737.31
583.12	1741.26
583.47	1743.17
583.82	1745.07
584.17	1747.67
584.53	1750.52
584.88	1753.38
585.23	1755.55
585.58	1757.24
585.93	1759.38
586.28	1761.95
586.63	1764.45
586.98	1767.90
587.34	1771.07
587.69	1773.00
588.04	1774.95
588.39	1777.07
588.74	1778.00
589.09	1779.81
589.44	1778.81
589.79	1779.52
590.14	1781.43
590.49	1782.07
590.84	1782.76
591.19	1784.62
591.54	1786.19
591.89	1786.86
592.25	1789.00
592.60	1788.45
592.95	1789.10
593.30	1790.81
593.65	1790.52
594.00	1789.88
594.35	1795.33
594.70	1793.17
595.05	1793.90
595.40	1793.71
595.75	1794.26
596.10	1795.05
596.45	1795.76
596.80	1797.10
597.15	1797.43
597.50	1796.60
597.85	1797.31
598.19	1798.10
598.54	1797.52
598.89	1796.76
599.24	1796.19
599.59	1794.86
599.94	1795.55
600.29	1794.62
600.64	1793.67
600.99	1793.95
601.34	1795.07
601.69	1788.50
602.04	1789.00
602.39	1787.90
602.74	1787.45
603.08	1786.12
603.43	1786.02
603.78	1784.33
604.13	1781.62
604.48	1780.02
604.83	1779.98
605.18	1779.00
605.53	1777.36
605.87	1776.26
606.22	1774.79
606.57	1772.43
606.92	1771.12
607.27	1769.74
607.62	1770.00
607.96	1768.76
608.31	1767.14
608.66	1765.02
609.01	1762.10
609.36	1760.24
609.70	1757.71
610.05	1754.98
610.40	1752.67
610.75	1748.93
611.10	1747.14
611.44	1744.83
611.79	1741.88
612.14	1737.69
612.49	1733.33
612.83	1730.07
613.18	1726.52
613.53	1723.19
613.88	1720.67
614.22	1716.19
614.57	1711.48
614.92	1706.67
615.27	1702.17
615.61	1697.36
615.96	1692.17
616.31	1688.74
616.65	1685.90
617.00	1682.26
617.35	1678.95
617.70	1675.14
618.04	1670.69
618.39	1665.71
618.74	1662.52
619.08	1658.07
619.43	1653.95
619.78	1649.81
620.12	1645.69
620.47	1641.55
620.82	1637.29
621.16	1632.71
621.51	1628.86
621.85	1624.33
622.20	1618.60
622.55	1612.36
622.89	1607.74
623.24	1603.98
623.59	1598.95
623.93	1593.48
624.28	1589.17
624.62	1586.00
624.97	1582.57
625.32	1579.21
625.66	1574.62
626.01	1569.14
626.35	1564.83
626.70	1560.40
627.04	1556.76
627.39	1551.64
627.73	1547.81
628.08	1543.90
628.43	1538.88
628.77	1534.31
629.12	1530.76
629.46	1527.12
629.81	1523.86
630.15	1519.12
630.50	1513.95
630.84	1509.52
631.19	1504.57
631.53	1498.64
631.88	1490.95
632.22	1483.69
632.57	1478.36
632.91	1472.60
633.26	1467.38
633.60	1461.79
633.95	1456.14
634.29	1449.95
634.64	1445.29
634.98	1439.07
635.32	1433.45
635.67	1428.76
636.01	1423.76
636.36	1417.67
636.70	1413.02
637.05	1407.50
637.39	1402.67
637.73	1398.21
638.08	1393.57
638.42	1388.24
638.77	1382.95
639.11	1377.79
639.45	1372.95
639.80	1366.95
640.14	1361.81
640.49	1356.17
640.83	1350.19
641.17	1344.57
641.52	1338.40
641.86	1332.76
642.20	1327.90
642.55	1321.19
642.89	1314.33
643.23	1308.21
643.58	1303.24
643.92	1295.71
644.26	1289.12
644.61	1282.71
644.95	1275.81
645.29	1269.21
645.64	1262.76
645.98	1256.55
646.32	1250.88
646.66	1243.60
647.01	1237.12
647.35	1231.33
647.69	1225.17
648.04	1219.57
648.38	1213.71
648.72	1207.76
649.06	1200.74
649.41	1193.93
649.75	1187.26
650.09	1181.33
650.43	1174.05
650.78	1166.64
651.12	1160.67
651.46	1154.31
651.80	1148.02
652.14	1141.50
652.49	1135.07
652.83	1128.62
653.17	1121.57
653.51	1114.33
653.85	1108.40
654.20	1102.19
654.54	1094.40
654.88	1087.00
655.22	1080.64
655.56	1073.21
655.90	1066.19
656.25	1059.71
656.59	1053.00
656.93	1047.69
657.27	1042.24
657.61	1036.17
657.95	1030.05
658.29	1023.62
658.64	1017.88
658.98	1011.10
659.32	1004.52
659.66	998.14
660.00	991.64
660.34	985.33
660.68	979.74
661.02	973.45
661.36	966.60
661.70	961.29
662.05	956.12
662.39	950.50
662.73	945.57
663.07	941.02
663.41	935.05
663.75	928.67
664.09	922.31
664.43	914.95
664.77	908.90
665.11	902.88
665.45	897.07
665.79	891.05
666.13	884.86
666.47	879.29
666.81	872.95
667.15	867.14
667.49	861.86
667.83	857.19
668.17	851.71
668.51	846.57
668.85	841.00
669.19	836.29
669.53	829.79
669.87	823.76
670.21	817.24
670.55	812.07
670.89	807.74
671.23	802.21
671.57	797.52
671.91	792.62
672.25	787.40
672.58	782.79
672.92	777.00
673.26	772.67
673.60	767.48
673.94	762.79
674.28	758.45
674.62	754.31
674.96	748.79
675.30	743.71
675.64	738.76
675.97	733.88
676.31	728.71
676.65	723.93
676.99	720.83
677.33	716.26
677.67	712.29
678.01	706.76
678.34	702.33
678.68	697.90
679.02	692.45
679.36	687.62
679.70	682.67
680.04	677.90
680.37	673.02
680.71	668.74
681.05	664.57
681.39	659.81
681.73	654.76
682.06	649.71
682.40	645.50
682.74	641.02
683.08	637.76
683.42	633.14
683.75	628.98
684.09	623.21
684.43	618.81
684.77	613.45
685.10	609.48
685.44	605.05
685.78	600.60
686.12	596.74
686.45	592.19
686.79	587.50
687.13	583.86
687.46	579.81
687.80	576.12
688.14	571.90
688.48	568.14
688.81	564.45
689.15	561.38
689.49	557.29
689.82	553.50
690.16	548.24
690.50	543.83
690.83	539.71
691.17	535.48
691.51	531.95
691.84	528.62
692.18	524.36
692.52	520.55
692.85	517.21
693.19	514.81
693.52	511.98
693.86	508.55
694.20	505.31
694.53	502.12
694.87	498.26
695.21	494.52
695.54	490.88
695.88	486.88
696.21	482.71
696.55	479.12
696.88	475.83
697.22	472.76
697.56	470.36
697.89	466.98
698.23	464.52
698.56	461.05
698.90	457.79
699.23	454.60
699.57	451.81
699.90	448.14
700.24	444.07
700.58	440.67
700.91	438.50
701.25	436.74
701.58	434.00
701.92	431.88
702.25	429.64
702.59	426.83
702.92	424.26
703.26	421.81
703.59	419.64
703.93	418.93
704.26	416.79
704.60	413.62
704.93	411.31
705.26	408.45
705.60	406.71
705.93	403.88
706.27	402.31
706.60	400.33
706.94	399.26
707.27	397.31
707.61	395.52
707.94	392.93
708.27	389.24
708.61	386.57
708.94	383.79
709.28	381.64
709.61	379.12
709.94	377.48
710.28	375.26
710.61	373.57
710.95	369.50
711.28	368.74
711.61	367.26
711.95	366.10
712.28	364.02
712.61	361.55
712.95	360.90
713.28	360.02
713.61	357.95
713.95	355.45
714.28	353.69
714.61	351.71
714.95	349.79
715.28	348.02
715.61	346.26
715.95	344.69
716.28	342.52
716.61	341.55
716.95	339.55
717.28	338.26
717.61	336.12
717.94	334.69
718.28	331.74
718.61	329.95
718.94	327.62
719.27	326.40
719.61	325.21
719.94	323.14
720.27	320.14
720.60	318.74
720.94	317.26
721.27	315.76
721.60	314.79
721.93	313.38
722.27	312.95
722.60	311.95
722.93	310.36
723.26	309.57
723.59	307.83
723.93	306.90
724.26	305.83
724.59	304.88
724.92	304.14
725.25	303.74
725.59	303.10
725.92	302.74
726.25	301.67
726.58	300.86
726.91	299.95
727.24	299.62
727.57	298.36
727.91	297.29
728.24	296.76
728.57	295.17
728.90	294.36
729.23	292.50
729.56	292.43
729.89	291.69
730.22	290.40
730.55	289.69
730.89	288.81
731.22	287.38
731.55	286.33
731.88	285.24
732.21	283.88
732.54	282.40
732.87	281.21
733.20	280.33
733.53	279.29
733.86	278.64
734.19	277.48
734.52	277.21
734.85	277.43
735.18	276.12
735.51	276.26
735.84	275.90
736.17	275.90
736.50	274.40
736.83	276.00
737.16	275.43
737.49	274.90
737.82	274.00
738.15	273.69
738.48	273.26
738.81	272.52
739.14	271.62
739.47	270.93
739.80	270.36
740.13	270.21
740.46	269.17
740.79	268.02
741.12	267.43
741.45	266.43
741.78	264.79
742.11	264.69
742.44	263.71
742.77	263.57
743.10	262.62
743.43	261.76
743.75	259.29
744.08	261.29
744.41	260.24
744.74	259.60
745.07	258.95
745.40	258.45
745.73	258.93
746.06	258.52
746.39	258.45
746.71	257.81
747.04	256.76
747.37	256.36
747.70	256.48
748.03	255.93
748.36	255.64
748.68	255.10
749.01	254.12
749.34	253.62
749.67	252.90
750.00	252.57
750.33	253.79
750.65	253.02
750.98	250.12
751.31	250.02
751.64	250.00
751.97	250.83
752.29	250.21
752.62	248.93
752.95	248.69
753.28	248.02
753.60	247.50
753.93	247.76
754.26	247.48
754.59	246.52
754.91	246.02
755.24	245.76
755.57	245.50
755.90	245.07
756.22	244.33
756.55	243.67
756.88	242.93
757.20	241.21
757.53	240.40
757.86	240.17
758.19	239.88
758.51	239.29
758.84	237.45
759.17	236.98
759.49	236.79
759.82	237.12
760.15	237.05
760.47	236.55
760.80	235.71
761.13	235.90
761.45	235.57
761.78	235.38
762.11	235.00
762.43	234.69
762.76	234.24
763.08	234.21
763.41	234.00
763.74	234.05
764.06	233.55
764.39	233.79
764.71	233.33
765.04	232.98
765.37	232.71
765.69	232.79
766.02	232.40
766.34	231.88
766.67	231.12
767.00	231.14
767.32	232.10
767.65	232.95
767.97	232.40
768.30	232.07
768.62	231.79
768.95	231.33
769.27	231.05
769.60	231.55
769.92	231.19
770.25	230.55
770.57	229.93
770.90	229.98
771.22	229.52
771.55	229.45
771.87	229.40
772.20	229.12
772.52	230.60
772.85	233.12
773.17	232.93
773.50	232.50
773.82	231.90
774.15	230.79
774.47	229.40
774.80	229.05
775.12	228.88
775.45	228.88
775.77	228.90
776.09	228.79
776.42	228.38
776.74	228.79
777.07	228.62
777.39	228.69
777.72	228.33
778.04	228.43
778.36	228.02
778.69	227.95
779.01	228.21
779.33	226.00
779.66	223.50
779.98	223.45
780.31	223.45
780.63	224.24
780.95	224.64
781.28	224.43
781.60	224.17
781.92	224.33
782.25	224.00
782.57	223.69
782.89	223.38
783.22	223.07
783.54	222.55
783.86	222.90
784.19	222.62
784.51	223.05
784.83	222.55
785.16	222.48
785.48	222.26
785.80	221.88
786.12	222.36
786.45	222.48
786.77	222.45
787.09	222.10
787.42	221.40
787.74	221.19
788.06	221.26
788.38	221.26
788.71	220.81
789.03	220.90
789.35	221.10
789.67	220.83
789.99	220.83
790.32	220.62
790.64	220.43
790.96	222.21
791.28	221.36
791.61	221.24
791.93	221.33
792.25	221.31
792.57	222.71
792.89	222.17
793.21	221.95
793.54	221.67
793.86	221.67
794.18	221.83
794.50	221.33
794.82	221.36
795.14	221.31
795.47	221.81
795.79	221.57
796.11	221.14
796.43	221.05
796.75	221.10
797.07	221.05
797.39	220.86
797.71	219.19
798.04	219.48
798.36	219.67
798.68	219.62
799.00	219.67
799.32	218.24
799.64	218.71
799.96	218.50
800.28	218.67
800.60	218.62
800.92	218.17
801.24	218.12
801.56	217.98
801.89	218.07
802.21	218.19
802.53	217.93
802.85	218.60
803.17	219.64
803.49	219.00
803.81	218.74
804.13	218.69
804.45	218.60
804.77	218.62
805.09	218.62
805.41	218.26
805.73	217.64
806.05	217.52
806.37	217.33
806.69	217.19
807.01	217.33
807.33	217.40
807.65	216.76
807.97	217.83
808.28	217.90
808.60	217.93
808.92	217.43
809.24	218.88
809.56	218.00
809.88	217.33
810.20	217.60
810.52	218.00
810.84	217.76
811.16	217.45
811.48	217.50
811.80	218.00
812.12	217.98
812.43	218.79
812.75	218.93
813.07	218.71
813.39	218.95
813.71	218.60
814.03	218.31
814.35	218.50
814.67	217.43
814.98	217.17
815.30	216.98
815.62	216.69
815.94	215.05
816.26	215.33
816.58	214.90
816.89	214.93
817.21	214.50
817.53	214.74
817.85	214.60
818.17	214.45
818.48	213.76
818.80	214.26
819.12	213.57
819.44	213.21
819.76	212.86
820.07	212.86
820.39	212.69
820.71	213.00
821.03	213.05
821.34	212.95
821.66	213.36
821.98	213.55
822.30	213.55
822.61	214.90
822.93	214.71
823.25	214.64
823.57	214.74
823.88	215.36
824.20	215.31
824.52	215.83
824.83	215.76
825.15	215.67
825.47	215.29
825.79	215.67
826.10	215.38
826.42	215.43
826.74	215.76
827.05	215.60
827.37	215.60
827.69	215.50
828.00	215.71
828.32	215.48
828.64	215.19
828.95	216.43
829.27	216.12
829.58	216.21
829.90	216.74
830.22	216.64
830.53	216.12
830.85	215.88
831.17	215.48
831.48	215.36
831.80	215.38
832.11	215.26
832.43	214.95
832.75	215.17
833.06	216.29
833.38	215.45
833.69	215.40
834.01	215.43
834.32	215.33
834.64	214.95
834.96	215.10
835.27	215.05
835.59	214.19
835.90	213.60
836.22	213.43
836.53	212.79
836.85	212.76
837.16	214.79
837.48	214.83
837.79	215.33
838.11	215.50
838.42	215.43
838.74	215.57
839.05	215.38
839.37	215.31
839.68	213.98
840.00	213.93
840.31	214.31
840.63	214.05
840.94	214.07
841.26	214.05
841.57	213.90
841.88	214.12
842.20	213.86
842.51	213.74
842.83	213.76
843.14	215.79
843.46	215.64
843.77	214.48
844.08	214.43
844.40	213.90
844.71	213.64
845.03	213.71
845.34	213.57
845.65	213.48
845.97	213.64
846.28	214.05
846.60	214.26
846.91	214.07
847.22	214.05
847.54	214.62
847.85	214.69
848.16	214.48
848.48	214.14
848.79	215.17
849.10	215.31
849.42	215.48
849.73	213.69
850.04	213.81
850.36	213.07
850.67	213.43
850.98	213.33
851.30	213.81
851.61	213.52
851.92	213.67
852.23	214.52
852.55	214.55
852.86	214.62
853.17	214.81
853.49	215.31
853.80	215.79
854.11	215.67
854.42	215.95
854.74	215.95
855.05	216.02
855.36	214.74
855.67	214.83
855.99	214.88
856.30	217.17
856.61	216.86
856.92	216.88
857.23	216.93
857.55	216.88
857.86	216.64
858.17	217.05
858.48	216.81
858.79	216.19
859.11	216.33
859.42	216.02
859.73	215.74
860.04	215.52
860.35	214.86
860.66	214.31
860.98	214.12
861.29	214.33
861.60	214.24
861.91	214.60
862.22	214.29
862.53	214.17
862.84	211.55
863.16	212.26
863.47	211.98
863.78	211.57
864.09	211.69
864.40	211.60
864.71	211.48
865.02	211.55
865.33	211.31
865.64	210.64
865.95	210.55
866.27	211.90
866.58	211.67
866.89	211.90
867.20	212.00
867.51	211.57
867.82	211.29
868.13	211.88
868.44	211.57
868.75	211.90
869.06	212.00
869.37	212.29
869.68	211.71
869.99	211.98
870.30	212.17
870.61	212.50
870.92	212.33
871.23	212.33
871.54	212.64
871.85	213.26
872.16	213.95
872.47	213.98
872.78	212.62
873.09	212.88
873.40	212.81
873.71	212.81
874.02	213.19
874.33	213.14
874.64	212.52
874.95	212.88
875.26	212.43
875.56	212.31
875.87	212.33
876.18	212.19
876.49	214.43
876.80	214.36
877.11	213.74
877.42	213.64
877.73	213.67
878.04	213.24
878.35	213.14
878.66	213.10
878.96	213.19
879.27	213.10
879.58	212.76
879.89	212.40
880.20	212.90
880.51	212.93
880.82	212.93
881.12	213.05
881.43	212.69
881.74	212.50
882.05	212.48
882.36	212.64
882.67	212.88
882.97	210.48
883.28	209.98
883.59	210.17
883.90	210.50
884.21	210.62
884.51	210.60
884.82	210.31
885.13	210.26
885.44	210.26
885.74	210.38
886.05	210.36
886.36	210.69
886.67	210.05
886.98	210.83
887.28	211.19
887.59	211.24
887.90	211.26
888.20	211.33
888.51	211.79
888.82	211.31
889.13	211.26
889.43	212.86
889.74	213.07
890.05	213.10
890.35	212.93
890.66	212.83
890.97	212.83
891.28	212.62
891.58	212.52
891.89	212.40
892.20	212.26
892.50	212.24
892.81	212.07
893.12	212.26
893.42	211.19
893.73	211.21
894.04	211.33
894.34	211.71
894.65	211.64
894.95	211.19
895.26	211.45
895.57	212.48
895.87	210.71
896.18	211.19
896.48	211.36
896.79	211.43
897.10	211.55
897.40	211.60
897.71	211.93
898.01	211.79
898.32	212.17
898.63	212.29
898.93	212.40
899.24	212.40
899.54	212.05
899.85	212.21
900.15	212.17
900.46	212.29
900.76	212.21
901.07	212.14
901.38	211.93
901.68	212.29
901.99	211.48
902.29	211.48
902.60	211.10
902.90	210.93
903.21	210.71
903.51	210.74
903.82	211.33
904.12	211.50
904.43	211.76
904.73	211.40
905.03	211.48
905.34	213.62
905.64	213.48
905.95	213.60
906.25	213.55
906.56	213.12
906.86	213.12
907.17	212.93
907.47	213.14
907.77	213.21
908.08	212.74
908.38	212.74
908.69	212.88
908.99	213.12
909.30	213.36
909.60	213.48
909.90	213.69
910.21	213.05
910.51	212.50
910.81	212.33
911.12	212.50
911.42	212.64
911.73	210.45
912.03	210.79
912.33	211.29
912.64	211.48
912.94	211.57
913.24	211.21
913.55	211.12
913.85	211.07
914.15	211.38
914.46	211.79
914.76	211.67
915.06	211.95
915.37	211.74
915.67	211.17
915.97	211.21
916.27	210.55
916.58	210.88
916.88	210.86
917.18	210.86
917.49	212.38
917.79	212.31
918.09	212.62
918.39	213.05
918.70	212.88
919.00	212.79
919.30	213.90
919.60	213.71
919.91	213.57
920.21	213.62
920.51	213.36
920.81	212.83
921.12	213.14
921.42	212.83
921.72	212.88
922.02	213.14
922.32	213.50
922.63	213.81
922.93	214.64
923.23	214.95
923.53	214.60
923.83	213.31
924.13	213.43
924.44	213.29
924.74	213.48
925.04	213.74
925.34	213.52
925.64	212.40
925.94	212.50
926.24	213.93
926.55	213.95
926.85	214.19
927.15	214.57
927.45	214.40
927.75	214.50
928.05	214.67
928.35	214.62
928.65	214.62
928.95	214.67
929.26	213.83
929.56	214.00
929.86	214.67
930.16	214.38
930.46	213.98
930.76	214.00
931.06	213.07
931.36	212.86
931.66	213.52
931.96	214.10
932.26	214.29
932.56	213.24
932.86	213.33
933.16	213.45
933.46	213.29
933.76	212.98
934.06	213.21
934.36	213.90
934.66	213.90
934.96	213.90
935.26	213.98
935.56	214.19
935.86	213.83
936.16	213.36
936.46	213.38
936.76	213.62
937.06	213.48
937.36	213.81
937.66	213.81
937.96	213.40
938.26	212.83
938.56	212.67
938.86	212.93
939.16	213.14
939.46	213.24
939.76	213.26
940.06	213.31
940.35	213.10
940.65	211.93
940.95	212.12
941.25	211.60
941.55	211.00
941.85	210.79
942.15	211.21
942.45	211.62
942.75	211.48
943.04	211.31
943.34	211.83
943.64	211.48
943.94	211.00
944.24	211.10
944.54	211.02
944.84	210.95
945.13	210.52
945.43	210.36
945.73	209.98
946.03	209.67
946.33	209.64
946.62	209.38
946.92	209.55
947.22	209.55
947.52	209.62
947.82	210.26
948.11	210.00
948.41	209.52
948.71	209.14
949.01	209.43
949.31	209.33
949.60	208.93
949.90	209.21
950.20	209.33
950.50	209.45
950.79	209.38
951.09	209.69
951.39	209.74
951.69	209.38
951.98	209.74
952.28	209.98
952.58	209.88
952.87	209.88
953.17	210.17
953.47	209.83
953.76	210.02
954.06	209.83
954.36	209.74
954.66	209.67
954.95	210.07
955.25	210.26
955.55	210.43
955.84	210.12
956.14	210.48
956.44	210.52
956.73	210.14
957.03	210.50
957.32	210.48
957.62	210.29
957.92	210.64
958.21	210.62
958.51	213.33
958.81	213.40
959.10	213.69
959.40	214.10
959.69	214.36
959.99	214.60
960.29	214.50
960.58	214.60
960.88	215.38
961.17	215.14
961.47	214.95
961.76	214.88
962.06	215.33
962.36	214.76
962.65	214.90
962.95	214.81
963.24	214.74
963.54	214.60
963.83	214.86
964.13	214.98
964.42	214.38
964.72	212.33
965.01	212.38
965.31	212.21
965.60	211.45
965.90	212.74
966.19	212.02
966.49	212.10
966.78	212.12
967.08	211.86
967.37	211.90
967.67	211.69
967.96	212.00
968.26	211.86
968.55	212.38
968.85	212.12
969.14	212.14
969.43	212.00
969.73	212.02
970.02	211.83
970.32	211.57
970.61	211.50
970.91	210.98
971.20	210.90
971.49	210.90
971.79	211.29
972.08	209.83
972.38	210.21
972.67	210.14
972.96	210.17
973.26	209.93
973.55	210.50
973.85	210.69
974.14	210.43
974.43	210.62
974.73	210.14
975.02	210.17
975.31	210.19
975.61	210.24
975.90	209.93
976.19	209.62
976.49	210.10
976.78	210.45
977.07	210.36
977.37	210.43
977.66	210.50
977.95	210.40
978.24	210.26
978.54	210.62
978.83	210.50
979.12	210.43
979.42	210.43
979.71	210.10
980.00	209.76
980.29	209.83
980.59	209.33
980.88	209.81
981.17	209.79
981.46	209.95
981.76	209.62
982.05	210.36
982.34	210.83
982.63	210.55
982.93	210.62
983.22	211.43
983.51	211.38
983.80	211.67
984.09	211.64
984.39	211.88
984.68	211.60
984.97	211.74
985.26	211.43
985.55	211.60
985.85	211.02
986.14	211.52
986.43	211.90
986.72	212.05
987.01	211.50
987.30	211.52
987.59	211.45
987.89	211.55
988.18	211.07
988.47	210.69
988.76	210.38
989.05	210.02
989.34	209.38
989.63	209.76
989.92	209.33
990.22	209.38
990.51	209.24
990.80	208.98
991.09	209.12
991.38	209.64
991.67	209.29
991.96	209.07
992.25	209.10
992.54	208.90
992.83	208.62
993.12	208.71
993.41	209.07
993.70	209.93
993.99	210.48
994.28	210.64
994.58	211.17
994.87	211.12
995.16	211.00
995.45	211.17
995.74	210.52
996.03	210.81
996.32	210.86
996.61	211.57
996.90	211.62
997.19	211.36
997.48	211.38
997.77	211.24
998.06	211.60
998.34	211.21
998.63	211.12
998.92	211.45
999.21	211.74
999.50	211.83
999.79	210.81
1000.08	210.74
1000.37	210.86
1000.66	210.45
1000.95	211.00
1001.24	211.43
1001.53	211.55
1001.82	211.74
1002.11	211.55
1002.40	211.76
1002.68	212.05
1002.97	213.76
1003.26	213.76
1003.55	213.45
1003.84	213.86
1004.13	214.38
1004.42	214.64
1004.71	214.45
1004.99	214.36
1005.28	214.95
1005.57	214.60
1005.86	214.57
1006.15	214.43
1006.44	213.98
1006.72	214.40
1007.01	214.21
1007.30	214.07
1007.59	213.83
1007.88	213.69
1008.17	213.98
1008.45	213.76
1008.74	212.81
1009.03	211.79
1009.32	211.69
1009.60	211.62
1009.89	211.31
1010.18	210.67
1010.47	210.36
1010.76	210.43
1011.04	210.38
1011.33	210.14
1011.62	210.45
1011.91	210.57
1012.19	210.60
1012.48	210.69
1012.77	210.33
1013.05	211.17
1013.34	211.19
1013.63	210.93
1013.92	211.17
1014.20	210.86
1014.49	210.76
1014.78	211.00
1015.06	210.24
1015.35	210.17
1015.64	210.64
1015.92	211.07
1016.21	211.19
1016.50	211.17
1016.78	211.26
1017.07	211.38
1017.36	210.95
1017.64	210.67
1017.93	210.98
1018.22	210.69
1018.50	210.88
1018.79	210.93
1019.08	209.64
1019.36	209.74
1019.65	209.71
1019.93	210.29
1020.22	210.57
1020.51	211.60
1020.79	211.45
1021.08	205.50
1021.36	211.00
1021.65	209.50
1021.94	204.00
1022.22	211.00
1022.51	208.00
1022.79	221.50
1023.08	215.00
1023.36	233.00
1023.65	208.00
>>>>>End Processed Spectral Data<<<<<
