SpectraSuite Data File
++++++++++++++++++++++++++++++++++++
Date: Tue Apr 02 18:42:13 EDT 2013
User: group
Dark Spectrum Present: No
Reference Spectrum Present: No
Number of Sampled Component Spectra: 1
Spectrometers: USB2E7196
Integration Time (usec): 580000 (USB2E7196)
Spectra Averaged: 2 (USB2E7196)
Boxcar Smoothing: 10 (USB2E7196)
Correct for Electrical Dark: No (USB2E7196)
Strobe/Lamp Enabled: No (USB2E7196)
Correct for Detector Non-linearity: No (USB2E7196)
Correct for Stray Light: No (USB2E7196)
Number of Pixels in Processed Spectrum: 2048
>>>>>Begin Processed Spectral Data<<<<<
339.09	0.00
339.48	196.00
339.86	194.00
340.24	194.00
340.63	194.00
341.01	229.00
341.39	200.00
341.78	208.00
342.16	209.50
342.54	206.00
342.93	196.62
343.31	206.31
343.69	206.76
344.07	207.38
344.46	208.26
344.84	209.07
345.22	207.88
345.60	208.45
345.99	208.24
346.37	208.05
346.75	207.98
347.13	207.60
347.52	207.79
347.90	208.48
348.28	208.71
348.66	209.17
349.05	208.64
349.43	208.86
349.81	208.93
350.19	209.21
350.57	209.52
350.96	209.90
351.34	210.33
351.72	210.31
352.10	210.33
352.48	210.40
352.87	210.24
353.25	210.48
353.63	210.29
354.01	210.45
354.39	210.93
354.77	211.26
355.15	212.07
355.54	212.12
355.92	211.45
356.30	211.60
356.68	212.98
357.06	213.02
357.44	212.74
357.82	212.90
358.20	213.90
358.58	213.98
358.97	214.07
359.35	214.33
359.73	214.90
360.11	214.95
360.49	214.79
360.87	215.12
361.25	215.52
361.63	216.21
362.01	216.76
362.39	216.62
362.77	216.90
363.15	216.81
363.53	216.83
363.91	217.07
364.29	217.12
364.67	215.21
365.05	215.43
365.43	215.88
365.81	216.00
366.19	216.24
366.57	217.00
366.95	216.95
367.33	216.76
367.71	216.67
368.09	216.98
368.47	216.79
368.85	216.36
369.23	216.64
369.61	216.07
369.99	216.45
370.37	216.74
370.75	217.62
371.13	217.36
371.51	217.21
371.89	217.38
372.27	217.40
372.65	217.36
373.03	217.24
373.41	217.05
373.78	217.02
374.16	215.86
374.54	215.21
374.92	214.98
375.30	214.76
375.68	214.40
376.06	214.71
376.44	214.95
376.82	215.38
377.19	215.26
377.57	215.31
377.95	214.62
378.33	214.55
378.71	213.00
379.09	213.14
379.47	213.50
379.84	213.24
380.22	213.00
380.60	212.71
380.98	212.86
381.36	212.83
381.73	212.55
382.11	212.83
382.49	212.95
382.87	212.90
383.25	212.98
383.62	215.45
384.00	215.24
384.38	215.36
384.76	215.69
385.13	216.62
385.51	216.64
385.89	216.55
386.27	216.48
386.64	216.90
387.02	216.93
387.40	216.48
387.78	216.50
388.15	216.71
388.53	216.64
388.91	216.62
389.29	216.36
389.66	216.88
390.04	216.76
390.42	217.14
390.79	217.24
391.17	217.31
391.55	215.33
391.92	214.88
392.30	215.07
392.68	214.64
393.05	214.38
393.43	214.52
393.81	214.62
394.18	214.29
394.56	214.52
394.94	214.83
395.31	214.90
395.69	215.50
396.06	215.79
396.44	216.10
396.82	215.95
397.19	217.36
397.57	216.90
397.95	217.17
398.32	216.33
398.70	216.40
399.07	216.81
399.45	216.45
399.82	216.52
400.20	216.24
400.58	216.17
400.95	215.38
401.33	215.48
401.70	216.71
402.08	216.81
402.45	216.81
402.83	217.60
403.20	217.90
403.58	217.74
403.95	218.10
404.33	218.45
404.71	218.71
405.08	219.83
405.46	220.07
405.83	220.29
406.21	220.86
406.58	221.38
406.96	221.48
407.33	222.29
407.70	223.07
408.08	225.14
408.45	225.95
408.83	227.05
409.20	227.50
409.58	227.36
409.95	228.69
410.33	229.71
410.70	229.74
411.08	230.95
411.45	232.07
411.82	232.90
412.20	234.62
412.57	237.02
412.95	236.50
413.32	238.31
413.69	239.88
414.07	241.52
414.44	243.33
414.82	245.26
415.19	247.57
415.56	249.76
415.94	251.00
416.31	254.00
416.68	256.76
417.06	260.12
417.43	263.88
417.81	267.19
418.18	270.81
418.55	274.81
418.93	278.45
419.30	282.95
419.67	287.60
420.04	292.10
420.42	296.29
420.79	303.40
421.16	309.07
421.54	316.00
421.91	322.12
422.28	328.60
422.66	335.69
423.03	343.19
423.40	350.55
423.77	357.60
424.15	364.40
424.52	371.95
424.89	380.76
425.26	388.36
425.64	396.43
426.01	404.76
426.38	413.71
426.75	423.71
427.13	432.52
427.50	441.67
427.87	451.86
428.24	461.86
428.61	470.76
428.99	482.33
429.36	492.81
429.73	503.98
430.10	515.43
430.47	527.55
430.85	538.74
431.22	551.21
431.59	566.10
431.96	579.57
432.33	593.81
432.70	607.60
433.08	623.69
433.45	638.79
433.82	654.50
434.19	671.33
434.56	688.19
434.93	704.62
435.30	721.52
435.68	739.31
436.05	756.90
436.42	774.12
436.79	790.12
437.16	807.52
437.53	825.52
437.90	843.88
438.27	861.95
438.64	879.79
439.01	897.60
439.38	911.81
439.75	926.88
440.13	943.81
440.50	959.43
440.87	973.02
441.24	986.76
441.61	1001.12
441.98	1012.45
442.35	1024.74
442.72	1038.14
443.09	1051.07
443.46	1058.48
443.83	1064.05
444.20	1069.12
444.57	1075.00
444.94	1078.55
445.31	1082.76
445.68	1088.19
446.05	1089.24
446.42	1089.21
446.79	1087.86
447.16	1086.12
447.53	1085.21
447.90	1078.95
448.27	1072.38
448.64	1063.31
449.01	1056.52
449.37	1045.55
449.74	1034.36
450.11	1022.88
450.48	1007.57
450.85	991.60
451.22	979.40
451.59	967.10
451.96	955.10
452.33	939.98
452.70	925.76
453.07	907.86
453.43	888.40
453.80	871.29
454.17	854.38
454.54	838.74
454.91	822.14
455.28	805.62
455.65	790.14
456.02	778.62
456.38	765.40
456.75	750.00
457.12	736.26
457.49	723.24
457.86	708.62
458.23	698.64
458.59	686.83
458.96	674.33
459.33	663.40
459.70	652.79
460.07	643.69
460.43	633.90
460.80	625.50
461.17	617.57
461.54	609.71
461.91	601.50
462.27	592.83
462.64	585.43
463.01	577.86
463.38	571.64
463.74	560.79
464.11	554.07
464.48	548.48
464.85	542.52
465.21	537.93
465.58	533.07
465.95	525.74
466.32	521.00
466.68	515.52
467.05	510.55
467.42	505.05
467.78	499.62
468.15	494.40
468.52	491.07
468.88	485.48
469.25	480.29
469.62	477.14
469.98	473.17
470.35	469.71
470.72	466.00
471.08	461.57
471.45	459.26
471.82	457.02
472.18	453.12
472.55	450.74
472.92	447.19
473.28	443.95
473.65	441.45
474.02	438.55
474.38	436.50
474.75	434.71
475.11	432.19
475.48	430.55
475.85	428.83
476.21	426.71
476.58	425.33
476.94	424.36
477.31	422.83
477.67	421.40
478.04	420.67
478.41	419.90
478.77	420.98
479.14	419.36
479.50	418.31
479.87	418.07
480.23	417.40
480.60	417.02
480.96	416.79
481.33	417.62
481.69	417.95
482.06	418.33
482.42	418.45
482.79	419.36
483.15	419.60
483.52	420.43
483.88	420.45
484.25	420.98
484.61	421.52
484.98	422.45
485.34	424.50
485.71	425.98
486.07	427.40
486.44	426.88
486.80	428.43
487.17	429.98
487.53	432.33
487.90	434.50
488.26	437.40
488.62	440.07
488.99	441.71
489.35	444.29
489.72	446.81
490.08	449.55
490.44	452.10
490.81	455.55
491.17	458.67
491.54	462.62
491.90	466.79
492.26	470.62
492.63	474.10
492.99	477.10
493.36	481.21
493.72	485.74
494.08	490.29
494.45	495.45
494.81	500.36
495.17	504.86
495.54	510.00
495.90	514.95
496.26	520.19
496.63	525.90
496.99	531.38
497.35	536.95
497.72	543.05
498.08	548.88
498.44	554.57
498.80	561.21
499.17	567.64
499.53	573.55
499.89	580.67
500.26	587.50
500.62	594.69
500.98	602.14
501.34	608.93
501.71	616.19
502.07	622.93
502.43	629.98
502.79	636.95
503.16	643.79
503.52	650.86
503.88	658.02
504.24	665.52
504.60	672.93
504.97	681.48
505.33	689.76
505.69	698.50
506.05	706.50
506.41	713.83
506.78	721.31
507.14	728.67
507.50	736.60
507.86	744.40
508.22	752.02
508.59	758.50
508.95	766.50
509.31	775.43
509.67	783.48
510.03	791.02
510.39	799.52
510.75	807.62
511.12	815.00
511.48	823.31
511.84	830.55
512.20	838.05
512.56	845.14
512.92	852.45
513.28	859.93
513.64	867.48
514.00	874.98
514.37	882.69
514.73	891.02
515.09	898.36
515.45	905.81
515.81	913.24
516.17	920.31
516.53	926.95
516.89	932.98
517.25	939.86
517.61	947.52
517.97	953.67
518.33	960.29
518.69	967.50
519.05	973.98
519.41	981.40
519.77	988.98
520.13	994.93
520.49	1000.71
520.85	1006.29
521.21	1013.26
521.57	1019.17
521.93	1025.00
522.29	1030.07
522.65	1035.10
523.01	1040.67
523.37	1046.00
523.73	1051.90
524.09	1057.02
524.45	1061.40
524.81	1066.12
525.17	1070.31
525.53	1075.29
525.89	1080.00
526.25	1084.90
526.61	1089.12
526.97	1093.43
527.33	1096.69
527.68	1103.00
528.04	1107.71
528.40	1111.60
528.76	1114.71
529.12	1119.33
529.48	1123.88
529.84	1128.43
530.20	1133.67
530.56	1138.26
530.91	1142.31
531.27	1146.69
531.63	1151.33
531.99	1155.55
532.35	1160.55
532.71	1164.60
533.07	1169.64
533.42	1175.86
533.78	1180.02
534.14	1184.31
534.50	1188.31
534.86	1193.33
535.21	1195.81
535.57	1199.90
535.93	1204.17
536.29	1209.31
536.65	1213.19
537.00	1216.45
537.36	1220.14
537.72	1223.38
538.08	1226.81
538.44	1230.50
538.79	1233.74
539.15	1236.33
539.51	1240.45
539.87	1243.12
540.22	1247.36
540.58	1250.24
540.94	1252.48
541.29	1255.07
541.65	1257.50
542.01	1260.83
542.37	1263.86
542.72	1266.26
543.08	1269.00
543.44	1271.71
543.79	1273.36
544.15	1276.74
544.51	1280.74
544.87	1284.19
545.22	1287.71
545.58	1290.64
545.94	1293.67
546.29	1296.67
546.65	1300.17
547.01	1302.88
547.36	1306.29
547.72	1308.38
548.07	1310.95
548.43	1312.88
548.79	1315.55
549.14	1318.69
549.50	1321.83
549.86	1324.31
550.21	1327.00
550.57	1330.43
550.92	1333.50
551.28	1336.55
551.64	1338.48
551.99	1340.81
552.35	1343.55
552.70	1345.57
553.06	1349.31
553.41	1352.60
553.77	1357.29
554.13	1361.02
554.48	1365.62
554.84	1369.88
555.19	1374.40
555.55	1379.55
555.90	1384.02
556.26	1388.02
556.61	1392.05
556.97	1395.43
557.32	1399.31
557.68	1403.98
558.03	1407.19
558.39	1411.26
558.74	1416.17
559.10	1420.67
559.45	1425.17
559.81	1428.83
560.16	1433.21
560.52	1436.57
560.87	1441.64
561.23	1445.48
561.58	1451.60
561.94	1454.48
562.29	1458.07
562.64	1462.95
563.00	1466.64
563.35	1471.45
563.71	1477.40
564.06	1482.60
564.42	1487.24
564.77	1492.67
565.12	1498.83
565.48	1506.69
565.83	1513.07
566.19	1518.50
566.54	1523.88
566.89	1528.81
567.25	1536.29
567.60	1544.12
567.96	1553.00
568.31	1559.14
568.66	1565.21
569.02	1569.36
569.37	1575.07
569.72	1581.40
570.08	1585.67
570.43	1591.69
570.78	1596.40
571.14	1600.98
571.49	1606.71
571.84	1613.07
572.20	1617.76
572.55	1622.33
572.90	1624.31
573.26	1628.86
573.61	1632.64
573.96	1638.64
574.31	1642.50
574.67	1645.74
575.02	1648.02
575.37	1648.95
575.72	1651.26
576.08	1654.79
576.43	1658.40
576.78	1662.69
577.13	1665.62
577.49	1670.79
577.84	1673.67
578.19	1676.83
578.54	1681.10
578.90	1684.62
579.25	1686.93
579.60	1690.07
579.95	1692.48
580.30	1696.33
580.66	1699.60
581.01	1703.76
581.36	1705.26
581.71	1709.21
582.06	1713.07
582.42	1716.60
582.77	1719.38
583.12	1722.24
583.47	1725.52
583.82	1728.26
584.17	1730.81
584.53	1734.90
584.88	1736.45
585.23	1739.55
585.58	1742.33
585.93	1744.05
586.28	1746.24
586.63	1749.55
586.98	1752.88
587.34	1755.79
587.69	1757.43
588.04	1758.67
588.39	1760.55
588.74	1761.19
589.09	1762.86
589.44	1762.86
589.79	1763.79
590.14	1766.64
590.49	1768.14
590.84	1768.76
591.19	1769.33
591.54	1770.17
591.89	1769.45
592.25	1772.62
592.60	1772.40
592.95	1773.74
593.30	1774.71
593.65	1774.88
594.00	1774.07
594.35	1779.33
594.70	1779.19
595.05	1779.43
595.40	1780.10
595.75	1779.83
596.10	1782.14
596.45	1782.12
596.80	1783.19
597.15	1784.21
597.50	1783.36
597.85	1785.05
598.19	1784.79
598.54	1785.98
598.89	1786.29
599.24	1787.26
599.59	1785.36
599.94	1785.95
600.29	1785.62
600.64	1785.07
600.99	1784.71
601.34	1786.05
601.69	1780.19
602.04	1779.57
602.39	1779.60
602.74	1779.31
603.08	1778.14
603.43	1777.69
603.78	1776.88
604.13	1776.69
604.48	1774.88
604.83	1774.62
605.18	1773.79
605.53	1772.81
605.87	1770.50
606.22	1769.05
606.57	1766.90
606.92	1765.50
607.27	1764.36
607.62	1762.93
607.96	1762.10
608.31	1761.38
608.66	1758.60
609.01	1757.36
609.36	1756.74
609.70	1754.26
610.05	1751.38
610.40	1750.50
610.75	1747.02
611.10	1745.26
611.44	1742.26
611.79	1739.19
612.14	1736.17
612.49	1731.62
612.83	1728.79
613.18	1726.00
613.53	1723.14
613.88	1719.55
614.22	1716.12
614.57	1711.43
614.92	1707.60
615.27	1703.36
615.61	1698.33
615.96	1694.57
616.31	1690.14
616.65	1686.69
617.00	1684.07
617.35	1680.79
617.70	1676.86
618.04	1673.40
618.39	1667.88
618.74	1662.83
619.08	1659.17
619.43	1654.48
619.78	1651.33
620.12	1647.19
620.47	1643.67
620.82	1638.95
621.16	1635.31
621.51	1631.86
621.85	1627.81
622.20	1623.55
622.55	1618.00
622.89	1614.50
623.24	1610.81
623.59	1606.74
623.93	1601.43
624.28	1596.55
624.62	1594.10
624.97	1591.17
625.32	1586.79
625.66	1583.33
626.01	1579.55
626.35	1575.95
626.70	1572.29
627.04	1568.57
627.39	1563.81
627.73	1560.02
628.08	1556.55
628.43	1552.17
628.77	1546.81
629.12	1543.07
629.46	1538.64
629.81	1535.69
630.15	1530.48
630.50	1525.19
630.84	1519.50
631.19	1515.02
631.53	1509.05
631.88	1501.76
632.22	1494.02
632.57	1489.19
632.91	1483.64
633.26	1479.02
633.60	1473.24
633.95	1467.45
634.29	1460.98
634.64	1456.26
634.98	1450.79
635.32	1446.00
635.67	1441.19
636.01	1437.10
636.36	1430.83
636.70	1426.48
637.05	1420.93
637.39	1416.10
637.73	1411.33
638.08	1407.83
638.42	1402.88
638.77	1398.90
639.11	1393.79
639.45	1388.90
639.80	1383.40
640.14	1378.60
640.49	1372.52
640.83	1366.40
641.17	1361.88
641.52	1356.81
641.86	1351.21
642.20	1345.71
642.55	1338.29
642.89	1331.69
643.23	1325.33
643.58	1320.26
643.92	1313.10
644.26	1306.52
644.61	1300.64
644.95	1294.14
645.29	1287.02
645.64	1280.83
645.98	1273.86
646.32	1267.95
646.66	1260.98
647.01	1253.81
647.35	1247.86
647.69	1241.50
648.04	1236.52
648.38	1229.19
648.72	1222.48
649.06	1215.76
649.41	1208.55
649.75	1202.31
650.09	1195.55
650.43	1187.38
650.78	1180.19
651.12	1173.76
651.46	1166.86
651.80	1160.05
652.14	1153.60
652.49	1147.24
652.83	1139.57
653.17	1133.45
653.51	1126.29
653.85	1120.07
654.20	1114.07
654.54	1106.74
654.88	1100.19
655.22	1093.52
655.56	1086.90
655.90	1080.26
656.25	1073.81
656.59	1067.40
656.93	1061.83
657.27	1056.79
657.61	1051.40
657.95	1045.83
658.29	1039.95
658.64	1035.05
658.98	1028.33
659.32	1021.36
659.66	1014.86
660.00	1009.43
660.34	1002.74
660.68	997.07
661.02	990.86
661.36	984.69
661.70	979.00
662.05	973.00
662.39	966.98
662.73	962.26
663.07	957.38
663.41	951.64
663.75	945.86
664.09	940.38
664.43	933.88
664.77	927.93
665.11	921.10
665.45	915.36
665.79	909.21
666.13	903.38
666.47	897.76
666.81	892.12
667.15	884.90
667.49	880.05
667.83	874.79
668.17	870.19
668.51	864.40
668.85	859.64
669.19	855.29
669.53	849.19
669.87	842.52
670.21	836.02
670.55	830.10
670.89	825.45
671.23	819.76
671.57	814.14
671.91	808.52
672.25	804.00
672.58	798.83
672.92	793.67
673.26	788.26
673.60	783.31
673.94	778.40
674.28	774.40
674.62	769.29
674.96	764.12
675.30	759.07
675.64	754.40
675.97	748.76
676.31	743.24
676.65	738.19
676.99	734.74
677.33	729.88
677.67	725.55
678.01	719.81
678.34	714.60
678.68	710.64
679.02	706.10
679.36	701.40
679.70	696.17
680.04	690.71
680.37	687.00
680.71	682.48
681.05	678.02
681.39	673.48
681.73	668.67
682.06	663.95
682.40	659.00
682.74	655.05
683.08	651.10
683.42	646.14
683.75	642.24
684.09	636.50
684.43	632.29
684.77	627.74
685.10	623.48
685.44	619.07
685.78	614.38
686.12	609.98
686.45	605.83
686.79	601.52
687.13	598.36
687.46	593.62
687.80	590.00
688.14	585.76
688.48	581.88
688.81	578.05
689.15	574.95
689.49	571.05
689.82	566.76
690.16	562.00
690.50	558.12
690.83	554.10
691.17	550.19
691.51	546.38
691.84	542.79
692.18	538.95
692.52	535.36
692.85	531.69
693.19	528.88
693.52	525.02
693.86	521.45
694.20	517.52
694.53	514.21
694.87	510.52
695.21	506.45
695.54	502.69
695.88	498.83
696.21	494.33
696.55	490.86
696.88	487.57
697.22	484.64
697.56	481.67
697.89	478.17
698.23	475.02
698.56	471.76
698.90	468.76
699.23	465.26
699.57	462.00
699.90	458.50
700.24	455.12
700.58	452.40
700.91	449.90
701.25	448.19
701.58	445.86
701.92	443.24
702.25	440.76
702.59	438.00
702.92	435.45
703.26	432.67
703.59	429.93
703.93	429.14
704.26	426.55
704.60	423.83
704.93	420.95
705.26	418.60
705.60	416.40
705.93	413.50
706.27	412.10
706.60	410.21
706.94	408.95
707.27	406.12
707.61	403.69
707.94	400.71
708.27	397.05
708.61	394.12
708.94	391.88
709.28	389.67
709.61	387.10
709.94	384.90
710.28	383.26
710.61	381.07
710.95	376.86
711.28	376.43
711.61	374.38
711.95	373.26
712.28	371.10
712.61	368.55
712.95	367.88
713.28	366.21
713.61	363.83
713.95	361.36
714.28	359.67
714.61	357.79
714.95	356.12
715.28	353.93
715.61	352.05
715.95	350.19
716.28	348.21
716.61	347.14
716.95	345.40
717.28	343.24
717.61	341.60
717.94	340.17
718.28	336.79
718.61	335.07
718.94	332.64
719.27	330.83
719.61	329.50
719.94	327.02
720.27	324.45
720.60	323.21
720.94	321.33
721.27	320.07
721.60	318.76
721.93	317.55
722.27	317.07
722.60	315.98
722.93	314.52
723.26	313.31
723.59	311.76
723.93	310.69
724.26	309.95
724.59	308.67
724.92	307.69
725.25	307.14
725.59	305.95
725.92	304.93
726.25	303.88
726.58	303.05
726.91	301.81
727.24	301.05
727.57	300.00
727.91	299.17
728.24	298.48
728.57	297.10
728.90	296.48
729.23	294.90
729.56	294.76
729.89	293.52
730.22	292.64
730.55	291.74
730.89	290.86
731.22	289.69
731.55	288.98
731.88	288.07
732.21	286.79
732.54	286.07
732.87	285.48
733.20	284.90
733.53	284.02
733.86	283.71
734.19	282.90
734.52	282.14
734.85	282.71
735.18	281.33
735.51	281.50
735.84	280.83
736.17	280.60
736.50	279.07
736.83	280.90
737.16	280.36
737.49	279.74
737.82	278.81
738.15	278.48
738.48	277.62
738.81	276.71
739.14	275.74
739.47	274.83
739.80	274.07
740.13	273.67
740.46	272.60
740.79	271.40
741.12	270.57
741.45	269.76
741.78	267.93
742.11	268.19
742.44	267.17
742.77	266.81
743.10	265.76
743.43	265.07
743.75	262.38
744.08	264.29
744.41	263.38
744.74	262.57
745.07	261.21
745.40	261.21
745.73	261.76
746.06	261.45
746.39	261.07
746.71	260.50
747.04	259.45
747.37	258.88
747.70	258.67
748.03	258.38
748.36	258.31
748.68	257.93
749.01	256.60
749.34	255.74
749.67	255.00
750.00	254.93
750.33	256.17
750.65	255.79
750.98	252.48
751.31	252.19
751.64	251.76
751.97	252.76
752.29	252.02
752.62	250.45
752.95	249.74
753.28	249.26
753.60	248.69
753.93	248.95
754.26	248.79
754.59	248.02
754.91	247.52
755.24	246.79
755.57	246.05
755.90	245.69
756.22	245.33
756.55	244.50
756.88	244.00
757.20	242.00
757.53	240.86
757.86	240.88
758.19	240.62
758.51	240.67
758.84	239.19
759.17	238.67
759.49	238.52
759.82	239.21
760.15	238.83
760.47	238.57
760.80	237.69
761.13	238.10
761.45	237.86
761.78	237.33
762.11	237.10
762.43	236.79
762.76	236.38
763.08	236.57
763.41	236.52
763.74	235.95
764.06	235.76
764.39	235.98
764.71	235.69
765.04	235.26
765.37	234.83
765.69	234.50
766.02	234.19
766.34	233.67
766.67	232.64
767.00	232.86
767.32	233.74
767.65	234.60
767.97	233.76
768.30	233.21
768.62	233.02
768.95	232.83
769.27	232.79
769.60	233.07
769.92	232.31
770.25	231.93
770.57	231.55
770.90	231.12
771.22	230.69
771.55	230.38
771.87	230.17
772.20	229.98
772.52	231.62
772.85	234.05
773.17	233.95
773.50	233.93
773.82	233.69
774.15	232.26
774.47	231.02
774.80	230.83
775.12	230.90
775.45	230.74
775.77	230.64
776.09	230.62
776.42	230.67
776.74	231.24
777.07	230.88
777.39	231.07
777.72	230.98
778.04	230.98
778.36	230.43
778.69	230.33
779.01	230.38
779.33	228.55
779.66	226.05
779.98	225.86
780.31	225.69
780.63	225.98
780.95	226.52
781.28	226.48
781.60	226.02
781.92	225.93
782.25	226.02
782.57	225.83
782.89	225.29
783.22	224.62
783.54	223.98
783.86	224.29
784.19	223.69
784.51	224.33
784.83	223.83
785.16	223.79
785.48	223.60
785.80	223.21
786.12	223.21
786.45	222.98
786.77	222.93
787.09	222.67
787.42	221.93
787.74	221.76
788.06	221.67
788.38	221.62
788.71	221.33
789.03	221.33
789.35	221.38
789.67	221.07
789.99	221.10
790.32	220.69
790.64	220.74
790.96	222.36
791.28	221.36
791.61	221.36
791.93	221.64
792.25	221.62
792.57	222.81
792.89	222.26
793.21	222.50
793.54	222.21
793.86	221.93
794.18	222.07
794.50	221.52
794.82	221.43
795.14	221.52
795.47	221.86
795.79	221.71
796.11	221.29
796.43	221.38
796.75	221.31
797.07	221.55
797.39	221.31
797.71	219.86
798.04	219.88
798.36	220.12
798.68	220.05
799.00	220.31
799.32	219.05
799.64	219.60
799.96	219.52
800.28	219.79
800.60	219.64
800.92	219.52
801.24	219.38
801.56	219.29
801.89	219.21
802.21	219.21
802.53	218.79
802.85	219.21
803.17	220.02
803.49	219.50
803.81	219.17
804.13	218.93
804.45	218.69
804.77	218.88
805.09	218.71
805.41	218.26
805.73	217.60
806.05	217.33
806.37	217.07
806.69	216.60
807.01	216.48
807.33	216.64
807.65	215.81
807.97	216.79
808.28	216.67
808.60	216.52
808.92	216.14
809.24	217.33
809.56	216.71
809.88	216.17
810.20	216.45
810.52	216.76
810.84	216.60
811.16	216.31
811.48	216.24
811.80	216.74
812.12	216.81
812.43	217.38
812.75	217.62
813.07	217.48
813.39	217.71
813.71	217.43
814.03	217.26
814.35	217.52
814.67	216.74
814.98	216.52
815.30	216.45
815.62	216.10
815.94	214.71
816.26	214.86
816.58	214.43
816.89	214.50
817.21	214.10
817.53	214.21
817.85	214.33
818.17	213.93
818.48	213.40
818.80	213.98
819.12	213.60
819.44	213.21
819.76	212.83
820.07	212.83
820.39	212.79
820.71	213.00
821.03	213.07
821.34	212.88
821.66	213.40
821.98	213.55
822.30	213.76
822.61	215.10
822.93	215.00
823.25	214.90
823.57	214.83
823.88	215.24
824.20	215.19
824.52	215.45
824.83	215.52
825.15	215.14
825.47	214.86
825.79	215.10
826.10	215.07
826.42	215.05
826.74	215.19
827.05	215.29
827.37	215.40
827.69	215.31
828.00	215.43
828.32	215.17
828.64	215.02
828.95	216.14
829.27	215.67
829.58	215.71
829.90	215.95
830.22	216.00
830.53	215.40
830.85	215.19
831.17	214.98
831.48	215.17
831.80	215.36
832.11	215.36
832.43	215.00
832.75	214.93
833.06	216.26
833.38	215.71
833.69	215.52
834.01	215.60
834.32	215.74
834.64	215.48
834.96	215.76
835.27	215.71
835.59	214.74
835.90	214.12
836.22	214.02
836.53	213.83
836.85	213.76
837.16	215.88
837.48	215.81
837.79	216.33
838.11	216.29
838.42	216.33
838.74	216.55
839.05	216.40
839.37	216.26
839.68	215.12
840.00	215.10
840.31	215.43
840.63	215.12
840.94	214.74
841.26	214.90
841.57	214.67
841.88	215.05
842.20	214.76
842.51	214.76
842.83	214.79
843.14	216.48
843.46	216.40
843.77	215.31
844.08	215.29
844.40	214.76
844.71	214.62
845.03	214.21
845.34	213.93
845.65	213.86
845.97	213.88
846.28	214.02
846.60	214.26
846.91	213.90
847.22	214.05
847.54	214.60
847.85	214.48
848.16	214.26
848.48	213.64
848.79	214.52
849.10	214.64
849.42	214.76
849.73	213.12
850.04	212.93
850.36	212.21
850.67	212.50
850.98	212.43
851.30	212.79
851.61	212.88
851.92	212.67
852.23	213.36
852.55	213.67
852.86	213.50
853.17	213.43
853.49	213.81
853.80	213.88
854.11	213.90
854.42	214.02
854.74	213.74
855.05	213.86
855.36	212.74
855.67	212.79
855.99	212.64
856.30	215.14
856.61	215.36
856.92	215.48
857.23	215.52
857.55	215.48
857.86	215.21
858.17	215.79
858.48	215.62
858.79	215.29
859.11	215.31
859.42	215.17
859.73	215.05
860.04	214.98
860.35	214.40
860.66	213.86
860.98	213.81
861.29	214.29
861.60	214.14
861.91	214.98
862.22	214.76
862.53	214.48
862.84	211.90
863.16	212.31
863.47	211.69
863.78	211.57
864.09	211.71
864.40	211.98
864.71	211.60
865.02	212.00
865.33	211.62
865.64	211.55
865.95	211.64
866.27	212.90
866.58	212.76
866.89	213.26
867.20	213.36
867.51	213.26
867.82	213.05
868.13	213.88
868.44	213.17
868.75	213.57
869.06	213.69
869.37	213.88
869.68	213.31
869.99	213.90
870.30	213.93
870.61	213.88
870.92	213.64
871.23	213.62
871.54	213.86
871.85	214.50
872.16	214.64
872.47	214.29
872.78	213.14
873.09	213.38
873.40	213.10
873.71	213.21
874.02	213.36
874.33	213.10
874.64	212.64
874.95	213.31
875.26	212.86
875.56	212.98
875.87	212.86
876.18	212.86
876.49	215.14
876.80	215.07
877.11	214.74
877.42	214.57
877.73	214.69
878.04	214.33
878.35	214.19
878.66	214.07
878.96	214.36
879.27	214.24
879.58	214.17
879.89	214.07
880.20	214.62
880.51	214.48
880.82	214.57
881.12	214.45
881.43	213.86
881.74	213.69
882.05	213.60
882.36	213.81
882.67	214.00
882.97	211.21
883.28	210.98
883.59	210.90
883.90	211.29
884.21	211.45
884.51	211.31
884.82	210.86
885.13	210.86
885.44	210.81
885.74	210.95
886.05	210.81
886.36	210.90
886.67	210.24
886.98	211.12
887.28	211.50
887.59	211.55
887.90	211.79
888.20	211.62
888.51	211.86
888.82	211.31
889.13	211.36
889.43	213.21
889.74	213.10
890.05	213.38
890.35	212.95
890.66	212.74
890.97	212.67
891.28	212.69
891.58	212.79
891.89	212.83
892.20	212.62
892.50	212.40
892.81	212.38
893.12	212.57
893.42	211.79
893.73	211.79
894.04	211.67
894.34	211.69
894.65	211.93
894.95	211.74
895.26	212.05
895.57	213.00
895.87	211.19
896.18	211.67
896.48	211.62
896.79	211.64
897.10	212.07
897.40	212.21
897.71	212.64
898.01	212.50
898.32	212.57
898.63	212.50
898.93	212.71
899.24	212.71
899.54	212.29
899.85	212.14
900.15	212.02
900.46	212.19
900.76	212.36
901.07	212.31
901.38	212.33
901.68	212.43
901.99	211.19
902.29	211.36
902.60	211.17
902.90	211.21
903.21	211.24
903.51	210.83
903.82	211.26
904.12	211.05
904.43	211.31
904.73	211.38
905.03	211.67
905.34	213.62
905.64	213.43
905.95	213.76
906.25	213.81
906.56	213.76
906.86	213.69
907.17	213.57
907.47	213.50
907.77	213.40
908.08	212.95
908.38	213.26
908.69	213.36
908.99	213.60
909.30	213.71
909.60	213.88
909.90	214.14
910.21	213.45
910.51	213.26
910.81	213.19
911.12	213.26
911.42	213.21
911.73	211.10
912.03	211.40
912.33	211.86
912.64	211.83
912.94	211.69
913.24	211.40
913.55	211.12
913.85	211.29
914.15	211.71
914.46	212.10
914.76	212.10
915.06	212.12
915.37	212.19
915.67	212.12
915.97	212.02
916.27	211.50
916.58	211.64
916.88	211.55
917.18	211.38
917.49	212.71
917.79	212.60
918.09	212.93
918.39	213.38
918.70	212.90
919.00	212.86
919.30	213.79
919.60	213.76
919.91	213.62
920.21	213.74
920.51	212.98
920.81	212.86
921.12	212.93
921.42	212.81
921.72	212.74
922.02	212.64
922.32	212.95
922.63	213.14
922.93	214.24
923.23	214.36
923.53	214.14
923.83	212.74
924.13	213.10
924.44	213.02
924.74	213.50
925.04	214.07
925.34	214.24
925.64	213.31
925.94	213.24
926.24	214.33
926.55	214.00
926.85	214.48
927.15	214.50
927.45	214.40
927.75	214.43
928.05	214.43
928.35	214.31
928.65	214.67
928.95	214.86
929.26	213.90
929.56	214.07
929.86	214.36
930.16	214.31
930.46	213.98
930.76	214.00
931.06	212.79
931.36	212.31
931.66	212.38
931.96	212.64
932.26	212.83
932.56	211.88
932.86	212.19
933.16	212.14
933.46	211.95
933.76	211.81
934.06	212.26
934.36	212.79
934.66	212.86
934.96	212.17
935.26	212.17
935.56	212.48
935.86	212.19
936.16	211.71
936.46	211.38
936.76	211.05
937.06	210.83
937.36	211.10
937.66	211.31
937.96	211.29
938.26	210.81
938.56	210.71
938.86	210.90
939.16	211.29
939.46	211.64
939.76	211.86
940.06	211.88
940.35	211.31
940.65	210.36
940.95	210.36
941.25	210.33
941.55	210.12
941.85	209.93
942.15	210.36
942.45	211.33
942.75	211.52
943.04	212.00
943.34	212.43
943.64	212.10
943.94	211.60
944.24	211.67
944.54	211.88
944.84	211.81
945.13	211.48
945.43	210.90
945.73	210.76
946.03	210.55
946.33	210.21
946.62	210.36
946.92	210.31
947.22	210.38
947.52	210.31
947.82	210.52
948.11	210.48
948.41	210.12
948.71	209.33
949.01	209.38
949.31	209.17
949.60	209.02
949.90	209.31
950.20	209.19
950.50	209.02
950.79	208.86
951.09	209.19
951.39	209.40
951.69	209.38
951.98	209.71
952.28	209.81
952.58	209.88
952.87	209.74
953.17	210.19
953.47	209.83
953.76	209.88
954.06	209.67
954.36	209.29
954.66	209.36
954.95	209.95
955.25	210.07
955.55	210.05
955.84	209.64
956.14	209.90
956.44	210.14
956.73	209.88
957.03	210.10
957.32	210.24
957.62	210.14
957.92	210.43
958.21	210.12
958.51	212.40
958.81	212.74
959.10	212.98
959.40	213.21
959.69	213.76
959.99	214.36
960.29	214.33
960.58	214.45
960.88	215.17
961.17	215.02
961.47	215.38
961.76	215.52
962.06	216.00
962.36	215.81
962.65	215.88
962.95	216.02
963.24	215.86
963.54	215.74
963.83	216.00
964.13	216.02
964.42	215.69
964.72	214.19
965.01	214.21
965.31	214.17
965.60	213.86
965.90	215.05
966.19	214.26
966.49	214.38
966.78	214.19
967.08	214.02
967.37	214.02
967.67	213.38
967.96	213.74
968.26	213.57
968.55	213.79
968.85	213.64
969.14	213.81
969.43	213.81
969.73	213.81
970.02	213.76
970.32	213.55
970.61	213.55
970.91	212.86
971.20	212.79
971.49	212.64
971.79	212.52
972.08	210.98
972.38	211.29
972.67	211.36
972.96	211.88
973.26	211.43
973.55	211.93
973.85	212.00
974.14	211.79
974.43	212.21
974.73	211.88
975.02	211.76
975.31	211.76
975.61	211.90
975.90	211.55
976.19	211.29
976.49	211.43
976.78	211.48
977.07	211.60
977.37	211.38
977.66	211.60
977.95	211.50
978.24	211.69
978.54	212.05
978.83	211.88
979.12	211.67
979.42	211.62
979.71	211.17
980.00	210.95
980.29	210.93
980.59	210.29
980.88	210.71
981.17	210.74
981.46	210.55
981.76	210.45
982.05	211.14
982.34	210.98
982.63	210.86
982.93	210.64
983.22	211.14
983.51	211.19
983.80	211.24
984.09	211.48
984.39	211.57
984.68	211.10
984.97	211.10
985.26	210.79
985.55	211.02
985.85	210.71
986.14	211.19
986.43	211.31
986.72	211.29
987.01	210.57
987.30	210.50
987.59	210.48
987.89	210.48
988.18	209.88
988.47	209.86
988.76	209.90
989.05	209.90
989.34	209.38
989.63	209.88
989.92	209.90
990.22	209.50
990.51	209.31
990.80	209.43
991.09	209.64
991.38	210.05
991.67	209.76
991.96	209.62
992.25	209.69
992.54	209.40
992.83	209.50
993.12	209.57
993.41	210.24
993.70	211.14
993.99	211.45
994.28	211.62
994.58	212.24
994.87	211.93
995.16	212.12
995.45	212.02
995.74	211.26
996.03	211.31
996.32	211.86
996.61	212.45
996.90	212.48
997.19	212.36
997.48	212.31
997.77	212.33
998.06	212.36
998.34	212.31
998.63	212.21
998.92	212.36
999.21	212.79
999.50	212.52
999.79	211.71
1000.08	211.64
1000.37	211.83
1000.66	211.21
1000.95	211.95
1001.24	212.07
1001.53	212.48
1001.82	212.76
1002.11	212.45
1002.40	212.57
1002.68	212.90
1002.97	214.33
1003.26	214.00
1003.55	213.57
1003.84	213.62
1004.13	214.38
1004.42	214.10
1004.71	214.10
1004.99	213.74
1005.28	214.26
1005.57	214.12
1005.86	214.02
1006.15	213.95
1006.44	213.38
1006.72	214.00
1007.01	213.57
1007.30	213.43
1007.59	213.29
1007.88	213.26
1008.17	213.33
1008.45	213.14
1008.74	212.12
1009.03	210.95
1009.32	211.10
1009.60	211.38
1009.89	211.21
1010.18	210.33
1010.47	210.50
1010.76	210.67
1011.04	210.81
1011.33	210.71
1011.62	210.93
1011.91	210.88
1012.19	211.07
1012.48	211.29
1012.77	211.02
1013.05	211.98
1013.34	212.02
1013.63	211.79
1013.92	211.86
1014.20	211.76
1014.49	211.69
1014.78	212.07
1015.06	211.45
1015.35	211.40
1015.64	211.67
1015.92	211.86
1016.21	211.93
1016.50	211.81
1016.78	212.02
1017.07	212.19
1017.36	211.57
1017.64	211.33
1017.93	211.64
1018.22	211.26
1018.50	211.12
1018.79	211.21
1019.08	210.19
1019.36	210.19
1019.65	210.10
1019.93	210.48
1020.22	210.76
1020.51	211.81
1020.79	211.50
1021.08	207.00
1021.36	204.50
1021.65	213.00
1021.94	210.50
1022.22	210.00
1022.51	208.00
1022.79	218.50
1023.08	214.00
1023.36	235.50
1023.65	206.50
>>>>>End Processed Spectral Data<<<<<
