SpectraSuite Data File
++++++++++++++++++++++++++++++++++++
Date: Tue Apr 02 18:44:27 EDT 2013
User: group
Dark Spectrum Present: No
Reference Spectrum Present: No
Number of Sampled Component Spectra: 1
Spectrometers: USB2E7196
Integration Time (usec): 580000 (USB2E7196)
Spectra Averaged: 2 (USB2E7196)
Boxcar Smoothing: 10 (USB2E7196)
Correct for Electrical Dark: No (USB2E7196)
Strobe/Lamp Enabled: No (USB2E7196)
Correct for Detector Non-linearity: No (USB2E7196)
Correct for Stray Light: No (USB2E7196)
Number of Pixels in Processed Spectrum: 2048
>>>>>Begin Processed Spectral Data<<<<<
339.09	0.00
339.48	193.50
339.86	196.00
340.24	196.50
340.63	193.50
341.01	236.00
341.39	201.00
341.78	206.50
342.16	212.00
342.54	202.00
342.93	197.36
343.31	207.00
343.69	207.62
344.07	208.14
344.46	208.88
344.84	209.67
345.22	208.43
345.60	208.93
345.99	209.14
346.37	208.95
346.75	209.14
347.13	209.14
347.52	209.21
347.90	209.90
348.28	210.24
348.66	210.60
349.05	210.05
349.43	210.21
349.81	210.40
350.19	210.48
350.57	210.76
350.96	211.12
351.34	211.40
351.72	211.50
352.10	211.60
352.48	211.48
352.87	211.43
353.25	211.33
353.63	211.17
354.01	211.21
354.39	211.52
354.77	211.71
355.15	212.57
355.54	212.62
355.92	211.88
356.30	211.79
356.68	213.36
357.06	213.62
357.44	213.38
357.82	213.50
358.20	214.43
358.58	214.12
358.97	213.88
359.35	214.26
359.73	214.67
360.11	214.74
360.49	214.88
360.87	214.64
361.25	214.69
361.63	215.21
362.01	215.26
362.39	215.14
362.77	215.24
363.15	214.74
363.53	214.76
363.91	215.21
364.29	215.17
364.67	213.10
365.05	213.21
365.43	213.45
365.81	213.57
366.19	213.69
366.57	214.55
366.95	214.71
367.33	214.55
367.71	214.48
368.09	214.83
368.47	214.69
368.85	214.81
369.23	215.57
369.61	215.07
369.99	215.74
370.37	215.88
370.75	216.69
371.13	216.38
371.51	216.02
371.89	216.00
372.27	216.29
372.65	216.60
373.03	216.52
373.41	216.33
373.78	216.26
374.16	215.14
374.54	214.64
374.92	214.50
375.30	214.33
375.68	214.24
376.06	214.19
376.44	214.19
376.82	214.45
377.19	214.14
377.57	214.05
377.95	213.52
378.33	213.43
378.71	212.26
379.09	212.57
379.47	212.83
379.84	212.69
380.22	212.52
380.60	212.10
380.98	211.88
381.36	211.79
381.73	211.62
382.11	212.26
382.49	212.26
382.87	211.83
383.25	212.12
383.62	214.29
384.00	214.00
384.38	214.21
384.76	214.52
385.13	215.43
385.51	215.60
385.89	215.29
386.27	215.26
386.64	215.76
387.02	215.57
387.40	215.45
387.78	215.50
388.15	215.55
388.53	215.48
388.91	215.69
389.29	215.60
389.66	215.86
390.04	215.43
390.42	215.74
390.79	216.24
391.17	216.24
391.55	214.17
391.92	214.17
392.30	214.07
392.68	213.95
393.05	213.52
393.43	213.57
393.81	213.52
394.18	213.29
394.56	213.36
394.94	213.88
395.31	213.81
395.69	214.45
396.06	214.76
396.44	215.10
396.82	215.00
397.19	216.24
397.57	215.74
397.95	216.05
398.32	215.71
398.70	215.71
399.07	215.90
399.45	215.95
399.82	215.79
400.20	215.79
400.58	215.79
400.95	215.10
401.33	215.64
401.70	217.14
402.08	217.31
402.45	217.45
402.83	218.05
403.20	218.19
403.58	218.02
403.95	218.21
404.33	218.69
404.71	219.00
405.08	220.31
405.46	220.93
405.83	221.40
406.21	221.64
406.58	222.26
406.96	222.31
407.33	222.83
407.70	223.81
408.08	226.02
408.45	226.81
408.83	228.14
409.20	228.33
409.58	227.98
409.95	229.12
410.33	229.95
410.70	230.07
411.08	231.43
411.45	232.43
411.82	233.17
412.20	234.57
412.57	236.95
412.95	236.43
413.32	238.12
413.69	239.29
414.07	240.93
414.44	242.43
414.82	244.74
415.19	247.02
415.56	249.07
415.94	250.21
416.31	252.83
416.68	255.38
417.06	258.88
417.43	262.64
417.81	266.24
418.18	270.02
418.55	273.74
418.93	277.50
419.30	281.57
419.67	286.38
420.04	290.83
420.42	295.19
420.79	302.40
421.16	307.71
421.54	314.64
421.91	321.02
422.28	327.26
422.66	334.10
423.03	341.93
423.40	348.83
423.77	355.67
424.15	362.74
424.52	370.40
424.89	378.86
425.26	386.12
425.64	393.52
426.01	401.31
426.38	410.62
426.75	420.14
427.13	430.00
427.50	439.26
427.87	449.00
428.24	459.05
428.61	467.17
428.99	478.64
429.36	489.21
429.73	500.05
430.10	512.07
430.47	522.90
430.85	533.60
431.22	546.62
431.59	561.60
431.96	574.31
432.33	588.17
432.70	601.76
433.08	617.98
433.45	633.50
433.82	648.95
434.19	665.36
434.56	682.33
434.93	697.52
435.30	713.55
435.68	731.33
436.05	747.88
436.42	764.38
436.79	779.71
437.16	796.60
437.53	814.90
437.90	831.74
438.27	850.07
438.64	867.93
439.01	884.74
439.38	898.55
439.75	913.52
440.13	930.40
440.50	945.60
440.87	958.43
441.24	971.88
441.61	986.86
441.98	997.74
442.35	1009.10
442.72	1022.12
443.09	1035.26
443.46	1042.95
443.83	1048.29
444.20	1053.45
444.57	1059.95
444.94	1063.62
445.31	1067.10
445.68	1073.71
446.05	1075.02
446.42	1073.76
446.79	1072.74
447.16	1070.57
447.53	1069.71
447.90	1063.45
448.27	1057.33
448.64	1048.26
449.01	1042.02
449.37	1031.14
449.74	1020.43
450.11	1010.02
450.48	995.40
450.85	979.55
451.22	967.05
451.59	955.69
451.96	944.14
452.33	928.74
452.70	914.12
453.07	896.69
453.43	876.74
453.80	860.50
454.17	845.14
454.54	829.45
454.91	813.83
455.28	797.29
455.65	782.31
456.02	771.24
456.38	759.43
456.75	743.48
457.12	729.81
457.49	716.86
457.86	702.00
458.23	692.10
458.59	680.90
458.96	668.83
459.33	657.86
459.70	647.38
460.07	639.07
460.43	629.74
460.80	621.48
461.17	614.10
461.54	605.67
461.91	597.10
462.27	588.62
462.64	581.74
463.01	574.60
463.38	568.00
463.74	556.98
464.11	550.00
464.48	545.00
464.85	538.67
465.21	534.21
465.58	529.33
465.95	522.21
466.32	516.98
466.68	511.64
467.05	506.81
467.42	502.21
467.78	496.26
468.15	491.45
468.52	487.76
468.88	482.29
469.25	477.40
469.62	474.83
469.98	471.10
470.35	467.14
470.72	463.71
471.08	459.31
471.45	456.79
471.82	453.74
472.18	449.57
472.55	447.24
472.92	443.74
473.28	441.10
473.65	438.74
474.02	435.98
474.38	434.12
474.75	431.95
475.11	429.60
475.48	428.43
475.85	426.31
476.21	424.24
476.58	422.83
476.94	421.64
477.31	419.40
477.67	418.21
478.04	417.07
478.41	415.88
478.77	417.17
479.14	415.81
479.50	415.38
479.87	415.29
480.23	414.86
480.60	414.26
480.96	413.74
481.33	414.19
481.69	414.55
482.06	414.38
482.42	414.52
482.79	414.67
483.15	414.83
483.52	416.21
483.88	416.45
484.25	417.12
484.61	418.31
484.98	419.12
485.34	421.10
485.71	422.95
486.07	424.50
486.44	424.19
486.80	425.88
487.17	427.31
487.53	429.71
487.90	431.76
488.26	434.95
488.62	437.69
488.99	439.50
489.35	442.17
489.72	444.90
490.08	447.62
490.44	450.19
490.81	453.45
491.17	456.26
491.54	460.29
491.90	463.93
492.26	467.12
492.63	471.02
492.99	474.19
493.36	478.02
493.72	482.57
494.08	487.10
494.45	491.69
494.81	496.93
495.17	501.19
495.54	506.40
495.90	511.21
496.26	516.48
496.63	522.05
496.99	527.21
497.35	532.88
497.72	539.05
498.08	544.88
498.44	550.60
498.80	556.93
499.17	563.12
499.53	569.36
499.89	576.36
500.26	582.76
500.62	589.38
500.98	596.57
501.34	603.26
501.71	610.45
502.07	617.43
502.43	624.29
502.79	631.00
503.16	637.76
503.52	644.24
503.88	651.02
504.24	658.76
504.60	666.14
504.97	674.38
505.33	681.98
505.69	690.69
506.05	698.71
506.41	706.00
506.78	713.52
507.14	721.21
507.50	728.74
507.86	736.43
508.22	744.07
508.59	751.26
508.95	759.43
509.31	767.79
509.67	775.71
510.03	783.52
510.39	791.69
510.75	799.67
511.12	807.50
511.48	815.55
511.84	823.31
512.20	831.07
512.56	838.36
512.92	845.64
513.28	853.17
513.64	860.55
514.00	868.19
514.37	875.45
514.73	882.67
515.09	890.52
515.45	898.33
515.81	905.07
516.17	912.24
516.53	917.90
516.89	923.60
517.25	930.40
517.61	937.36
517.97	943.69
518.33	950.05
518.69	957.21
519.05	963.69
519.41	969.33
519.77	976.74
520.13	981.98
520.49	987.69
520.85	992.83
521.21	999.17
521.57	1005.17
521.93	1010.26
522.29	1015.33
522.65	1019.55
523.01	1024.98
523.37	1030.62
523.73	1035.36
524.09	1040.71
524.45	1045.71
524.81	1050.14
525.17	1054.98
525.53	1059.07
525.89	1064.07
526.25	1068.81
526.61	1072.62
526.97	1077.43
527.33	1080.83
527.68	1087.86
528.04	1092.33
528.40	1097.24
528.76	1100.64
529.12	1104.60
529.48	1109.12
529.84	1113.31
530.20	1118.43
530.56	1122.17
530.91	1126.45
531.27	1131.52
531.63	1136.48
531.99	1140.50
532.35	1144.71
532.71	1148.81
533.07	1154.12
533.42	1159.93
533.78	1163.52
534.14	1167.98
534.50	1171.50
534.86	1176.31
535.21	1177.36
535.57	1181.81
535.93	1185.31
536.29	1190.31
536.65	1194.07
537.00	1198.02
537.36	1202.64
537.72	1205.76
538.08	1209.90
538.44	1213.10
538.79	1215.69
539.15	1218.67
539.51	1222.12
539.87	1225.33
540.22	1228.17
540.58	1230.93
540.94	1232.45
541.29	1236.00
541.65	1238.31
542.01	1241.76
542.37	1244.43
542.72	1246.79
543.08	1248.95
543.44	1252.07
543.79	1253.07
544.15	1256.43
544.51	1259.69
544.87	1262.10
545.22	1265.48
545.58	1267.79
545.94	1270.48
546.29	1273.40
546.65	1275.83
547.01	1278.50
547.36	1281.40
547.72	1283.45
548.07	1286.69
548.43	1288.24
548.79	1289.43
549.14	1291.64
549.50	1293.98
549.86	1295.62
550.21	1299.21
550.57	1302.17
550.92	1303.88
551.28	1308.17
551.64	1310.76
551.99	1313.10
552.35	1315.81
552.70	1318.10
553.06	1320.98
553.41	1323.95
553.77	1328.31
554.13	1332.00
554.48	1335.74
554.84	1339.64
555.19	1343.52
555.55	1348.38
555.90	1352.38
556.26	1357.26
556.61	1361.57
556.97	1364.38
557.32	1368.50
557.68	1372.12
558.03	1375.83
558.39	1379.62
558.74	1384.24
559.10	1387.52
559.45	1391.31
559.81	1395.81
560.16	1399.93
560.52	1404.60
560.87	1409.62
561.23	1413.07
561.58	1419.36
561.94	1423.29
562.29	1427.45
562.64	1433.05
563.00	1435.48
563.35	1440.43
563.71	1445.07
564.06	1450.55
564.42	1456.38
564.77	1462.24
565.12	1468.83
565.48	1476.76
565.83	1484.07
566.19	1488.36
566.54	1494.50
566.89	1500.50
567.25	1507.10
567.60	1514.10
567.96	1522.24
568.31	1528.74
568.66	1535.26
569.02	1538.90
569.37	1544.64
569.72	1549.93
570.08	1554.60
570.43	1560.26
570.78	1566.93
571.14	1572.76
571.49	1577.67
571.84	1583.45
572.20	1588.26
572.55	1593.60
572.90	1596.05
573.26	1599.69
573.61	1604.00
573.96	1608.21
574.31	1612.24
574.67	1615.98
575.02	1618.81
575.37	1620.57
575.72	1622.95
576.08	1626.76
576.43	1631.07
576.78	1635.14
577.13	1639.26
577.49	1643.00
577.84	1647.88
578.19	1650.43
578.54	1653.79
578.90	1657.88
579.25	1661.33
579.60	1663.81
579.95	1665.76
580.30	1669.62
580.66	1673.98
581.01	1677.81
581.36	1681.36
581.71	1685.14
582.06	1689.57
582.42	1694.19
582.77	1696.69
583.12	1700.14
583.47	1702.40
583.82	1705.38
584.17	1708.48
584.53	1711.95
584.88	1715.86
585.23	1718.69
585.58	1721.48
585.93	1723.64
586.28	1726.60
586.63	1729.64
586.98	1733.07
587.34	1737.00
587.69	1739.38
588.04	1741.24
588.39	1743.76
588.74	1745.12
589.09	1746.95
589.44	1747.45
589.79	1748.93
590.14	1751.67
590.49	1753.52
590.84	1755.17
591.19	1756.83
591.54	1758.45
591.89	1759.33
592.25	1761.76
592.60	1762.10
592.95	1763.98
593.30	1766.33
593.65	1767.21
594.00	1767.98
594.35	1774.71
594.70	1774.62
595.05	1775.38
595.40	1776.26
595.75	1777.07
596.10	1778.69
596.45	1780.29
596.80	1781.69
597.15	1782.05
597.50	1782.10
597.85	1784.14
598.19	1785.00
598.54	1784.86
598.89	1785.71
599.24	1786.55
599.59	1785.24
599.94	1786.00
600.29	1786.69
600.64	1786.40
600.99	1786.40
601.34	1786.50
601.69	1781.12
602.04	1780.24
602.39	1779.93
602.74	1780.62
603.08	1779.81
603.43	1780.64
603.78	1780.05
604.13	1778.60
604.48	1778.33
604.83	1778.36
605.18	1777.40
605.53	1776.81
605.87	1776.40
606.22	1774.38
606.57	1773.57
606.92	1772.62
607.27	1771.33
607.62	1770.43
607.96	1769.76
608.31	1769.64
608.66	1768.93
609.01	1766.07
609.36	1766.60
609.70	1765.48
610.05	1763.19
610.40	1761.90
610.75	1759.14
611.10	1757.90
611.44	1755.50
611.79	1753.38
612.14	1750.79
612.49	1747.14
612.83	1744.45
613.18	1742.07
613.53	1739.40
613.88	1735.21
614.22	1731.74
614.57	1728.36
614.92	1723.86
615.27	1720.02
615.61	1714.74
615.96	1710.33
616.31	1708.00
616.65	1704.57
617.00	1702.19
617.35	1699.38
617.70	1696.62
618.04	1692.69
618.39	1687.93
618.74	1685.17
619.08	1681.31
619.43	1677.67
619.78	1674.95
620.12	1671.29
620.47	1667.48
620.82	1663.74
621.16	1660.57
621.51	1657.31
621.85	1653.38
622.20	1650.26
622.55	1646.36
622.89	1643.67
623.24	1640.64
623.59	1637.24
623.93	1632.26
624.28	1626.83
624.62	1623.10
624.97	1620.02
625.32	1616.60
625.66	1612.76
626.01	1607.95
626.35	1604.10
626.70	1600.40
627.04	1597.57
627.39	1593.17
627.73	1590.17
628.08	1586.55
628.43	1582.98
628.77	1578.62
629.12	1575.29
629.46	1571.21
629.81	1567.21
630.15	1562.64
630.50	1558.29
630.84	1552.98
631.19	1548.83
631.53	1544.95
631.88	1538.12
632.22	1531.12
632.57	1527.17
632.91	1521.98
633.26	1518.40
633.60	1513.40
633.95	1508.24
634.29	1502.07
634.64	1498.19
634.98	1492.10
635.32	1488.79
635.67	1484.21
636.01	1480.31
636.36	1475.24
636.70	1470.81
637.05	1466.05
637.39	1462.02
637.73	1457.02
638.08	1454.38
638.42	1449.93
638.77	1445.14
639.11	1441.98
639.45	1438.69
639.80	1432.57
640.14	1428.12
640.49	1422.88
640.83	1417.55
641.17	1413.10
641.52	1407.76
641.86	1402.00
642.20	1398.31
642.55	1391.02
642.89	1385.60
643.23	1379.55
643.58	1374.88
643.92	1368.14
644.26	1362.98
644.61	1357.52
644.95	1351.76
645.29	1344.36
645.64	1338.55
645.98	1332.81
646.32	1326.95
646.66	1319.67
647.01	1313.74
647.35	1307.98
647.69	1302.14
648.04	1296.93
648.38	1290.76
648.72	1285.45
649.06	1280.07
649.41	1273.21
649.75	1268.05
650.09	1261.31
650.43	1254.98
650.78	1248.33
651.12	1242.69
651.46	1235.64
651.80	1229.07
652.14	1223.21
652.49	1217.14
652.83	1211.10
653.17	1204.02
653.51	1197.05
653.85	1191.33
654.20	1185.36
654.54	1178.24
654.88	1171.48
655.22	1165.19
655.56	1158.81
655.90	1151.90
656.25	1145.12
656.59	1138.43
656.93	1132.29
657.27	1127.55
657.61	1121.24
657.95	1115.40
658.29	1109.81
658.64	1104.90
658.98	1097.69
659.32	1090.76
659.66	1084.57
660.00	1078.36
660.34	1072.40
660.68	1066.19
661.02	1060.00
661.36	1053.71
661.70	1048.43
662.05	1042.38
662.39	1037.17
662.73	1031.19
663.07	1025.90
663.41	1019.81
663.75	1014.07
664.09	1008.21
664.43	1001.55
664.77	995.55
665.11	989.02
665.45	982.40
665.79	975.64
666.13	970.45
666.47	965.05
666.81	959.24
667.15	952.86
667.49	947.69
667.83	942.45
668.17	936.57
668.51	931.02
668.85	925.29
669.19	921.05
669.53	913.38
669.87	907.57
670.21	901.74
670.55	896.00
670.89	890.79
671.23	885.07
671.57	879.36
671.91	874.17
672.25	868.55
672.58	863.50
672.92	857.62
673.26	851.86
673.60	846.05
673.94	840.69
674.28	835.60
674.62	830.60
674.96	825.24
675.30	820.55
675.64	815.31
675.97	809.64
676.31	803.14
676.65	799.02
676.99	794.95
677.33	789.19
677.67	785.00
678.01	779.38
678.34	774.33
678.68	769.98
679.02	764.00
679.36	758.83
679.70	753.38
680.04	749.29
680.37	744.79
680.71	740.02
681.05	735.76
681.39	731.38
681.73	726.00
682.06	720.69
682.40	715.45
682.74	711.12
683.08	708.02
683.42	703.67
683.75	699.05
684.09	693.50
684.43	689.10
684.77	683.48
685.10	679.21
685.44	674.71
685.78	669.17
686.12	665.67
686.45	661.40
686.79	656.76
687.13	651.98
687.46	647.62
687.80	643.90
688.14	639.17
688.48	634.83
688.81	630.81
689.15	627.43
689.49	623.12
689.82	618.50
690.16	612.57
690.50	608.40
690.83	603.95
691.17	599.40
691.51	595.40
691.84	591.95
692.18	587.88
692.52	583.43
692.85	579.93
693.19	576.67
693.52	572.69
693.86	569.05
694.20	565.48
694.53	561.64
694.87	557.17
695.21	553.14
695.54	548.81
695.88	544.43
696.21	539.45
696.55	535.45
696.88	532.05
697.22	529.00
697.56	525.36
697.89	521.24
698.23	517.71
698.56	513.48
698.90	510.14
699.23	506.50
699.57	503.26
699.90	499.45
700.24	495.36
700.58	491.90
700.91	488.71
701.25	486.38
701.58	483.48
701.92	480.79
702.25	477.90
702.59	474.67
702.92	471.55
703.26	469.36
703.59	466.62
703.93	465.12
704.26	462.12
704.60	459.21
704.93	456.40
705.26	453.45
705.60	451.52
705.93	447.69
706.27	445.52
706.60	442.83
706.94	441.24
707.27	438.38
707.61	436.17
707.94	433.26
708.27	429.24
708.61	425.88
708.94	423.19
709.28	420.12
709.61	417.90
709.94	416.02
710.28	412.93
710.61	410.81
710.95	406.67
711.28	405.90
711.61	403.57
711.95	402.14
712.28	399.83
712.61	397.24
712.95	396.38
713.28	394.67
713.61	392.21
713.95	389.02
714.28	387.17
714.61	384.74
714.95	382.57
715.28	380.17
715.61	378.12
715.95	376.26
716.28	374.17
716.61	372.24
716.95	370.00
717.28	368.50
717.61	366.38
717.94	364.48
718.28	360.71
718.61	358.45
718.94	356.10
719.27	354.55
719.61	352.74
719.94	350.60
720.27	347.69
720.60	345.93
720.94	344.45
721.27	342.50
721.60	341.43
721.93	340.07
722.27	339.45
722.60	338.43
722.93	336.40
723.26	335.36
723.59	333.36
723.93	332.00
724.26	330.86
724.59	329.17
724.92	327.98
725.25	327.64
725.59	326.38
725.92	325.50
726.25	324.19
726.58	323.12
726.91	321.88
727.24	321.29
727.57	320.14
727.91	318.64
728.24	317.93
728.57	316.07
728.90	315.07
729.23	313.19
729.56	312.69
729.89	311.90
730.22	310.48
730.55	309.50
730.89	308.40
731.22	307.05
731.55	306.31
731.88	305.00
732.21	303.17
732.54	302.19
732.87	301.00
733.20	299.90
733.53	299.14
733.86	298.24
734.19	296.62
734.52	295.98
734.85	296.64
735.18	295.12
735.51	295.26
735.84	294.48
736.17	294.17
736.50	292.40
736.83	293.64
737.16	292.88
737.49	291.98
737.82	290.90
738.15	290.12
738.48	289.21
738.81	288.43
739.14	287.45
739.47	286.62
739.80	285.67
740.13	284.88
740.46	283.45
740.79	282.19
741.12	281.55
741.45	280.45
741.78	278.36
742.11	278.45
742.44	277.10
742.77	276.52
743.10	275.40
743.43	274.90
743.75	272.07
744.08	274.17
744.41	273.26
744.74	272.76
745.07	271.83
745.40	271.26
745.73	271.52
746.06	270.90
746.39	270.07
746.71	269.40
747.04	268.69
747.37	267.81
747.70	267.48
748.03	266.95
748.36	266.71
748.68	266.31
749.01	265.10
749.34	264.33
749.67	263.90
750.00	263.64
750.33	264.29
750.65	264.07
750.98	260.88
751.31	260.43
751.64	259.86
751.97	260.31
752.29	259.81
752.62	258.19
752.95	257.60
753.28	257.07
753.60	256.60
753.93	256.81
754.26	256.79
754.59	255.69
754.91	254.69
755.24	253.98
755.57	253.38
755.90	252.71
756.22	252.05
756.55	251.10
756.88	250.26
757.20	248.43
757.53	247.19
757.86	246.69
758.19	246.43
758.51	246.05
758.84	244.62
759.17	243.88
759.49	243.45
759.82	244.40
760.15	244.19
760.47	243.57
760.80	242.24
761.13	242.14
761.45	241.62
761.78	241.36
762.11	240.93
762.43	240.57
762.76	240.21
763.08	240.40
763.41	240.33
763.74	240.05
764.06	239.52
764.39	239.52
764.71	239.21
765.04	238.69
765.37	238.33
765.69	238.07
766.02	237.88
766.34	237.62
766.67	236.21
767.00	236.14
767.32	236.95
767.65	237.98
767.97	237.40
768.30	237.36
768.62	237.31
768.95	237.05
769.27	236.60
769.60	236.67
769.92	235.98
770.25	235.38
770.57	234.79
770.90	234.69
771.22	233.95
771.55	233.86
771.87	233.90
772.20	233.52
772.52	235.14
772.85	237.29
773.17	237.21
773.50	237.14
773.82	236.45
774.15	235.43
774.47	234.02
774.80	233.67
775.12	233.48
775.45	232.98
775.77	232.62
776.09	232.45
776.42	231.98
776.74	232.29
777.07	231.83
777.39	231.74
777.72	231.45
778.04	231.79
778.36	231.19
778.69	231.00
779.01	230.79
779.33	228.60
779.66	226.02
779.98	225.88
780.31	225.60
780.63	226.33
780.95	226.40
781.28	226.21
781.60	226.02
781.92	225.90
782.25	225.83
782.57	225.88
782.89	225.64
783.22	225.50
783.54	224.98
783.86	225.19
784.19	225.07
784.51	225.48
784.83	224.74
785.16	224.55
785.48	224.33
785.80	224.26
786.12	224.52
786.45	224.50
786.77	224.31
787.09	224.33
787.42	223.62
787.74	223.45
788.06	223.50
788.38	223.24
788.71	222.90
789.03	222.90
789.35	222.86
789.67	222.57
789.99	222.64
790.32	222.40
790.64	222.33
790.96	223.74
791.28	222.90
791.61	222.95
791.93	223.12
792.25	222.98
792.57	224.36
792.89	223.64
793.21	223.71
793.54	223.43
793.86	223.00
794.18	223.02
794.50	222.69
794.82	222.48
795.14	222.62
795.47	223.05
795.79	222.90
796.11	222.55
796.43	222.31
796.75	222.26
797.07	222.07
797.39	221.86
797.71	220.33
798.04	220.45
798.36	220.71
798.68	220.62
799.00	220.62
799.32	219.14
799.64	219.52
799.96	219.19
800.28	219.60
800.60	219.36
800.92	219.24
801.24	219.10
801.56	219.24
801.89	219.19
802.21	219.19
802.53	218.86
802.85	219.31
803.17	220.33
803.49	219.90
803.81	219.69
804.13	219.74
804.45	219.71
804.77	219.52
805.09	219.33
805.41	219.00
805.73	218.62
806.05	218.36
806.37	218.38
806.69	218.21
807.01	217.83
807.33	218.00
807.65	217.52
807.97	218.40
808.28	218.07
808.60	217.86
808.92	217.64
809.24	218.90
809.56	218.36
809.88	217.64
810.20	217.67
810.52	218.29
810.84	218.07
811.16	217.64
811.48	217.48
811.80	218.21
812.12	218.24
812.43	218.52
812.75	218.71
813.07	218.38
813.39	218.67
813.71	218.55
814.03	218.36
814.35	218.33
814.67	217.24
814.98	217.14
815.30	217.17
815.62	216.69
815.94	215.57
816.26	215.60
816.58	215.12
816.89	215.40
817.21	214.64
817.53	214.67
817.85	214.88
818.17	215.00
818.48	213.83
818.80	214.21
819.12	213.95
819.44	213.52
819.76	213.19
820.07	213.21
820.39	212.98
820.71	213.19
821.03	213.17
821.34	213.29
821.66	213.57
821.98	213.60
822.30	213.60
822.61	214.74
822.93	214.76
823.25	214.81
823.57	214.57
823.88	215.21
824.20	215.10
824.52	215.38
824.83	215.57
825.15	215.52
825.47	215.24
825.79	215.52
826.10	215.57
826.42	215.79
826.74	215.83
827.05	215.81
827.37	215.67
827.69	215.76
828.00	215.90
828.32	215.76
828.64	215.60
828.95	216.79
829.27	216.10
829.58	216.14
829.90	216.57
830.22	216.81
830.53	216.26
830.85	215.90
831.17	215.67
831.48	215.38
831.80	215.74
832.11	215.86
832.43	215.67
832.75	215.57
833.06	216.64
833.38	216.10
833.69	216.26
834.01	216.55
834.32	216.48
834.64	216.19
834.96	216.17
835.27	216.24
835.59	215.48
835.90	215.07
836.22	214.93
836.53	214.50
836.85	214.21
837.16	216.33
837.48	216.52
837.79	216.88
838.11	217.00
838.42	216.93
838.74	217.02
839.05	216.69
839.37	216.81
839.68	215.69
840.00	215.57
840.31	215.95
840.63	215.76
840.94	215.60
841.26	215.52
841.57	215.67
841.88	215.90
842.20	215.52
842.51	215.38
842.83	215.48
843.14	217.38
843.46	217.33
843.77	216.17
844.08	216.10
844.40	215.50
844.71	215.29
845.03	215.10
845.34	214.83
845.65	214.90
845.97	214.86
846.28	214.98
846.60	215.12
846.91	214.64
847.22	214.40
847.54	214.81
847.85	214.90
848.16	214.64
848.48	214.12
848.79	214.98
849.10	215.26
849.42	215.29
849.73	213.33
850.04	213.07
850.36	212.19
850.67	212.55
850.98	212.48
851.30	212.67
851.61	212.62
851.92	212.69
852.23	213.38
852.55	213.33
852.86	213.21
853.17	213.55
853.49	214.07
853.80	214.55
854.11	214.62
854.42	214.60
854.74	214.38
855.05	214.60
855.36	213.45
855.67	213.36
855.99	213.33
856.30	215.90
856.61	216.12
856.92	216.19
857.23	216.26
857.55	216.24
857.86	216.26
858.17	216.50
858.48	216.29
858.79	215.52
859.11	215.79
859.42	215.69
859.73	215.43
860.04	215.19
860.35	214.60
860.66	213.98
860.98	213.88
861.29	214.07
861.60	214.02
861.91	214.74
862.22	214.60
862.53	214.31
862.84	211.98
863.16	212.55
863.47	212.31
863.78	211.86
864.09	211.95
864.40	211.90
864.71	211.79
865.02	212.17
865.33	212.10
865.64	211.69
865.95	211.76
866.27	212.95
866.58	212.81
866.89	213.00
867.20	213.00
867.51	212.69
867.82	212.71
868.13	213.36
868.44	212.74
868.75	213.02
869.06	213.07
869.37	213.05
869.68	212.48
869.99	212.88
870.30	212.95
870.61	213.07
870.92	212.69
871.23	212.67
871.54	212.79
871.85	213.55
872.16	214.07
872.47	213.95
872.78	212.50
873.09	212.60
873.40	212.52
873.71	212.81
874.02	213.10
874.33	213.00
874.64	212.43
874.95	212.95
875.26	212.52
875.56	212.43
875.87	212.33
876.18	211.81
876.49	213.76
876.80	213.93
877.11	213.62
877.42	213.71
877.73	213.88
878.04	213.62
878.35	213.43
878.66	213.24
878.96	213.14
879.27	213.62
879.58	213.52
879.89	213.62
880.20	213.93
880.51	213.93
880.82	214.05
881.12	214.02
881.43	213.40
881.74	213.36
882.05	213.38
882.36	213.52
882.67	214.02
882.97	211.50
883.28	211.33
883.59	211.38
883.90	211.71
884.21	211.98
884.51	211.71
884.82	211.40
885.13	211.24
885.44	211.19
885.74	211.00
886.05	210.95
886.36	210.67
886.67	210.24
886.98	211.26
887.28	211.38
887.59	211.33
887.90	211.55
888.20	211.36
888.51	211.76
888.82	211.43
889.13	211.52
889.43	213.57
889.74	213.17
890.05	212.93
890.35	212.62
890.66	212.29
890.97	212.12
891.28	211.95
891.58	212.26
891.89	212.29
892.20	212.05
892.50	211.83
892.81	211.88
893.12	211.62
893.42	210.50
893.73	210.45
894.04	210.43
894.34	210.50
894.65	210.50
894.95	210.26
895.26	210.48
895.57	211.55
895.87	209.74
896.18	210.33
896.48	210.64
896.79	210.67
897.10	211.12
897.40	211.31
897.71	211.50
898.01	211.38
898.32	211.62
898.63	211.79
898.93	212.12
899.24	212.07
899.54	212.19
899.85	212.17
900.15	211.95
900.46	212.17
900.76	212.33
901.07	212.67
901.38	212.48
901.68	212.62
901.99	211.33
902.29	211.36
902.60	211.17
902.90	211.05
903.21	211.17
903.51	210.74
903.82	211.38
904.12	211.33
904.43	211.43
904.73	211.50
905.03	211.36
905.34	213.12
905.64	213.17
905.95	213.17
906.25	213.43
906.56	213.45
906.86	213.36
907.17	213.02
907.47	212.86
907.77	213.07
908.08	212.79
908.38	213.19
908.69	213.55
908.99	213.93
909.30	214.12
909.60	214.10
909.90	214.31
910.21	213.43
910.51	213.36
910.81	213.21
911.12	213.33
911.42	213.43
911.73	211.50
912.03	211.45
912.33	211.90
912.64	211.74
912.94	211.76
913.24	211.40
913.55	211.48
913.85	211.29
914.15	211.36
914.46	211.36
914.76	210.93
915.06	210.69
915.37	210.38
915.67	210.29
915.97	210.29
916.27	209.64
916.58	209.81
916.88	209.64
917.18	209.69
917.49	210.98
917.79	210.95
918.09	211.17
918.39	211.79
918.70	211.76
919.00	211.88
919.30	212.88
919.60	212.74
919.91	212.64
920.21	212.93
920.51	212.40
920.81	212.40
921.12	212.95
921.42	212.83
921.72	212.90
922.02	212.95
922.32	213.21
922.63	213.71
922.93	214.76
923.23	215.02
923.53	214.55
923.83	213.05
924.13	213.10
924.44	213.21
924.74	213.55
925.04	213.88
925.34	213.79
925.64	212.90
925.94	213.10
926.24	214.26
926.55	214.14
926.85	214.81
927.15	215.00
927.45	214.79
927.75	214.83
928.05	214.81
928.35	214.62
928.65	214.98
928.95	215.00
929.26	214.45
929.56	214.83
929.86	215.19
930.16	215.26
930.46	215.19
930.76	215.10
931.06	214.07
931.36	213.43
931.66	213.69
931.96	213.76
932.26	213.95
932.56	213.14
932.86	213.21
933.16	213.17
933.46	212.88
933.76	212.60
934.06	213.12
934.36	213.86
934.66	214.07
934.96	213.67
935.26	213.71
935.56	213.81
935.86	213.05
936.16	212.81
936.46	212.40
936.76	212.26
937.06	211.88
937.36	212.12
937.66	212.17
937.96	212.00
938.26	211.76
938.56	211.62
938.86	211.74
939.16	212.07
939.46	212.02
939.76	212.05
940.06	212.19
940.35	211.64
940.65	210.71
940.95	210.79
941.25	210.38
941.55	210.19
941.85	210.12
942.15	210.71
942.45	211.26
942.75	211.40
943.04	211.64
943.34	212.19
943.64	212.10
943.94	211.90
944.24	211.93
944.54	211.90
944.84	211.81
945.13	211.26
945.43	210.88
945.73	210.90
946.03	211.07
946.33	210.74
946.62	210.69
946.92	210.52
947.22	210.55
947.52	210.83
947.82	210.98
948.11	210.67
948.41	210.17
948.71	209.64
949.01	209.83
949.31	209.64
949.60	209.55
949.90	209.74
950.20	209.69
950.50	209.81
950.79	209.76
951.09	210.05
951.39	210.12
951.69	210.05
951.98	210.24
952.28	210.12
952.58	210.24
952.87	210.17
953.17	210.55
953.47	210.40
953.76	210.10
954.06	209.69
954.36	209.29
954.66	209.21
954.95	209.90
955.25	209.83
955.55	209.90
955.84	209.48
956.14	209.71
956.44	209.95
956.73	209.45
957.03	209.48
957.32	209.45
957.62	209.38
957.92	209.76
958.21	209.67
958.51	212.07
958.81	212.36
959.10	212.74
959.40	213.26
959.69	213.31
959.99	213.83
960.29	213.98
960.58	213.98
960.88	214.98
961.17	214.67
961.47	215.07
961.76	215.05
962.06	215.43
962.36	215.19
962.65	215.14
962.95	215.36
963.24	215.31
963.54	215.24
963.83	215.64
964.13	215.62
964.42	215.00
964.72	213.14
965.01	213.17
965.31	212.86
965.60	212.14
965.90	213.50
966.19	213.00
966.49	213.05
966.78	213.05
967.08	212.98
967.37	212.88
967.67	212.40
967.96	212.83
968.26	213.00
968.55	213.29
968.85	213.33
969.14	213.19
969.43	213.14
969.73	213.02
970.02	212.90
970.32	212.71
970.61	212.76
970.91	212.26
971.20	212.00
971.49	211.93
971.79	212.17
972.08	210.50
972.38	210.52
972.67	210.33
972.96	210.62
973.26	210.00
973.55	210.93
973.85	210.74
974.14	210.38
974.43	210.24
974.73	209.86
975.02	209.48
975.31	209.60
975.61	209.69
975.90	209.74
976.19	209.52
976.49	209.67
976.78	210.02
977.07	210.00
977.37	209.88
977.66	210.12
977.95	209.71
978.24	210.12
978.54	210.79
978.83	210.79
979.12	210.83
979.42	210.62
979.71	209.62
980.00	209.71
980.29	209.60
980.59	209.19
980.88	209.83
981.17	210.10
981.46	210.12
981.76	209.98
982.05	210.50
982.34	210.57
982.63	210.71
982.93	210.67
983.22	211.36
983.51	211.55
983.80	211.69
984.09	212.14
984.39	212.05
984.68	211.71
984.97	212.02
985.26	211.55
985.55	211.83
985.85	211.90
986.14	212.17
986.43	212.62
986.72	212.64
987.01	211.88
987.30	211.64
987.59	211.43
987.89	211.36
988.18	210.83
988.47	210.52
988.76	210.21
989.05	210.10
989.34	209.64
989.63	210.14
989.92	209.76
990.22	209.43
990.51	209.31
990.80	209.24
991.09	209.24
991.38	209.60
991.67	209.40
991.96	209.12
992.25	209.10
992.54	208.60
992.83	208.69
993.12	208.60
993.41	208.95
993.70	209.95
993.99	210.48
994.28	210.71
994.58	211.17
994.87	210.95
995.16	210.79
995.45	210.52
995.74	209.71
996.03	209.98
996.32	210.33
996.61	210.90
996.90	210.67
997.19	210.55
997.48	210.52
997.77	210.43
998.06	210.74
998.34	210.55
998.63	210.69
998.92	210.62
999.21	211.05
999.50	211.21
999.79	210.52
1000.08	210.48
1000.37	210.52
1000.66	210.31
1000.95	210.90
1001.24	211.07
1001.53	211.45
1001.82	211.60
1002.11	211.40
1002.40	211.76
1002.68	211.95
1002.97	213.57
1003.26	213.55
1003.55	213.43
1003.84	213.55
1004.13	213.81
1004.42	213.90
1004.71	213.76
1004.99	213.45
1005.28	213.86
1005.57	213.60
1005.86	213.33
1006.15	213.17
1006.44	212.57
1006.72	212.79
1007.01	212.36
1007.30	212.52
1007.59	212.21
1007.88	212.33
1008.17	212.36
1008.45	211.55
1008.74	210.67
1009.03	209.57
1009.32	209.64
1009.60	209.67
1009.89	209.60
1010.18	208.93
1010.47	208.76
1010.76	208.79
1011.04	209.05
1011.33	208.93
1011.62	209.24
1011.91	209.43
1012.19	209.45
1012.48	209.57
1012.77	209.55
1013.05	210.43
1013.34	210.33
1013.63	210.40
1013.92	210.33
1014.20	210.14
1014.49	210.43
1014.78	210.67
1015.06	210.17
1015.35	209.90
1015.64	210.05
1015.92	210.29
1016.21	210.43
1016.50	210.38
1016.78	210.83
1017.07	210.81
1017.36	210.40
1017.64	209.81
1017.93	209.88
1018.22	209.62
1018.50	209.74
1018.79	209.62
1019.08	208.81
1019.36	208.95
1019.65	208.88
1019.93	209.36
1020.22	209.74
1020.51	210.93
1020.79	210.88
1021.08	205.00
1021.36	207.00
1021.65	209.50
1021.94	210.50
1022.22	213.50
1022.51	210.00
1022.79	217.50
1023.08	214.00
1023.36	237.00
1023.65	208.50
>>>>>End Processed Spectral Data<<<<<
