SpectraSuite Data File
++++++++++++++++++++++++++++++++++++
Date: Tue Apr 02 18:46:48 EDT 2013
User: group
Dark Spectrum Present: No
Reference Spectrum Present: No
Number of Sampled Component Spectra: 1
Spectrometers: USB2E7196
Integration Time (usec): 580000 (USB2E7196)
Spectra Averaged: 2 (USB2E7196)
Boxcar Smoothing: 10 (USB2E7196)
Correct for Electrical Dark: No (USB2E7196)
Strobe/Lamp Enabled: No (USB2E7196)
Correct for Detector Non-linearity: No (USB2E7196)
Correct for Stray Light: No (USB2E7196)
Number of Pixels in Processed Spectrum: 2048
>>>>>Begin Processed Spectral Data<<<<<
339.09	0.00
339.48	191.50
339.86	197.50
340.24	198.00
340.63	198.50
341.01	231.50
341.39	199.50
341.78	205.00
342.16	209.00
342.54	206.50
342.93	198.07
343.31	207.81
343.69	208.50
344.07	209.05
344.46	209.69
344.84	210.21
345.22	209.02
345.60	209.57
345.99	210.02
346.37	210.12
346.75	210.31
347.13	210.57
347.52	210.60
347.90	211.52
348.28	211.48
348.66	212.10
349.05	211.33
349.43	211.62
349.81	211.88
350.19	211.90
350.57	212.17
350.96	212.07
351.34	212.52
351.72	212.69
352.10	212.74
352.48	212.67
352.87	212.62
353.25	212.81
353.63	212.62
354.01	212.36
354.39	212.17
354.77	212.17
355.15	212.74
355.54	212.71
355.92	211.76
356.30	211.69
356.68	213.14
357.06	213.12
357.44	212.86
357.82	212.69
358.20	213.67
358.58	213.57
358.97	213.71
359.35	214.05
359.73	214.40
360.11	214.36
360.49	214.50
360.87	214.57
361.25	214.71
361.63	215.36
362.01	215.38
362.39	215.43
362.77	215.76
363.15	215.50
363.53	215.26
363.91	215.26
364.29	215.21
364.67	213.00
365.05	212.95
365.43	213.07
365.81	213.24
366.19	213.31
366.57	213.88
366.95	213.71
367.33	213.02
367.71	212.79
368.09	213.26
368.47	212.98
368.85	212.88
369.23	213.33
369.61	212.62
369.99	213.26
370.37	213.55
370.75	214.17
371.13	213.79
371.51	213.67
371.89	214.17
372.27	214.40
372.65	214.62
373.03	214.98
373.41	214.67
373.78	214.57
374.16	213.45
374.54	212.81
374.92	212.83
375.30	212.98
375.68	212.67
376.06	212.48
376.44	212.50
376.82	212.69
377.19	212.33
377.57	212.40
377.95	211.69
378.33	211.57
378.71	210.45
379.09	210.81
379.47	211.21
379.84	211.07
380.22	210.81
380.60	210.50
380.98	210.19
381.36	210.43
381.73	210.14
382.11	210.62
382.49	210.90
382.87	210.55
383.25	210.62
383.62	213.31
384.00	212.90
384.38	213.10
384.76	213.38
385.13	214.26
385.51	214.33
385.89	214.14
386.27	214.21
386.64	214.69
387.02	214.57
387.40	214.40
387.78	214.48
388.15	214.76
388.53	215.00
388.91	215.19
389.29	214.88
389.66	215.26
390.04	215.05
390.42	215.38
390.79	215.62
391.17	215.57
391.55	213.10
391.92	213.19
392.30	213.48
392.68	213.19
393.05	213.10
393.43	213.17
393.81	213.62
394.18	213.48
394.56	213.40
394.94	213.67
395.31	213.33
395.69	213.88
396.06	214.21
396.44	214.38
396.82	214.26
397.19	215.48
397.57	215.43
397.95	215.69
398.32	215.40
398.70	215.60
399.07	216.29
399.45	216.29
399.82	216.55
400.20	216.21
400.58	216.26
400.95	215.50
401.33	216.07
401.70	217.52
402.08	217.74
402.45	217.76
402.83	218.29
403.20	218.62
403.58	218.50
403.95	218.76
404.33	219.07
404.71	219.43
405.08	220.83
405.46	221.10
405.83	221.57
406.21	221.98
406.58	222.62
406.96	222.79
407.33	223.50
407.70	224.21
408.08	226.45
408.45	227.31
408.83	228.29
409.20	228.76
409.58	228.19
409.95	229.21
410.33	230.26
410.70	230.71
411.08	232.02
411.45	232.95
411.82	233.79
412.20	235.33
412.57	237.93
412.95	237.36
413.32	239.36
413.69	240.71
414.07	241.81
414.44	243.69
414.82	245.40
415.19	247.76
415.56	249.81
415.94	250.90
416.31	253.86
416.68	256.48
417.06	259.71
417.43	263.50
417.81	266.93
418.18	270.60
418.55	274.43
418.93	278.29
419.30	282.33
419.67	286.86
420.04	291.17
420.42	295.12
420.79	302.26
421.16	307.62
421.54	314.40
421.91	320.90
422.28	326.76
422.66	333.48
423.03	341.19
423.40	347.71
423.77	355.07
424.15	362.02
424.52	369.88
424.89	378.00
425.26	385.45
425.64	393.36
426.01	401.43
426.38	410.07
426.75	419.64
427.13	429.19
427.50	438.26
427.87	448.10
428.24	458.31
428.61	466.57
428.99	478.00
429.36	488.43
429.73	499.29
430.10	510.60
430.47	521.95
430.85	531.98
431.22	544.86
431.59	559.31
431.96	571.83
432.33	585.71
432.70	599.40
433.08	615.45
433.45	630.48
433.82	645.76
434.19	662.57
434.56	679.36
434.93	694.48
435.30	710.90
435.68	728.24
436.05	745.02
436.42	761.95
436.79	777.36
437.16	794.62
437.53	813.02
437.90	831.48
438.27	849.60
438.64	868.67
439.01	885.40
439.38	898.88
439.75	914.02
440.13	930.45
440.50	945.98
440.87	958.52
441.24	971.48
441.61	986.17
441.98	996.83
442.35	1008.45
442.72	1021.83
443.09	1034.81
443.46	1042.79
443.83	1048.10
444.20	1052.76
444.57	1058.79
444.94	1061.79
445.31	1064.88
445.68	1070.67
446.05	1071.71
446.42	1069.57
446.79	1068.79
447.16	1067.00
447.53	1065.67
447.90	1059.83
448.27	1053.50
448.64	1044.69
449.01	1038.33
449.37	1027.02
449.74	1015.40
450.11	1004.50
450.48	989.50
450.85	973.95
451.22	961.26
451.59	949.43
451.96	938.29
452.33	922.83
452.70	909.45
453.07	892.60
453.43	872.10
453.80	856.24
454.17	840.83
454.54	825.26
454.91	809.71
455.28	793.36
455.65	778.10
456.02	766.60
456.38	754.24
456.75	739.45
457.12	726.19
457.49	714.36
457.86	699.98
458.23	690.48
458.59	678.95
458.96	667.31
459.33	656.62
459.70	645.71
460.07	637.26
460.43	627.14
460.80	618.93
461.17	611.81
461.54	603.69
461.91	595.79
462.27	587.71
462.64	580.36
463.01	573.17
463.38	567.19
463.74	556.60
464.11	550.00
464.48	544.19
464.85	538.29
465.21	533.93
465.58	528.69
465.95	521.95
466.32	516.98
466.68	511.52
467.05	506.62
467.42	501.76
467.78	496.86
468.15	491.83
468.52	487.67
468.88	482.12
469.25	477.21
469.62	474.31
469.98	469.90
470.35	466.45
470.72	463.57
471.08	458.67
471.45	456.40
471.82	453.95
472.18	449.83
472.55	447.19
472.92	443.19
473.28	440.57
473.65	437.81
474.02	434.88
474.38	432.74
474.75	430.86
475.11	428.55
475.48	426.71
475.85	424.90
476.21	422.86
476.58	422.05
476.94	420.83
477.31	419.29
477.67	418.86
478.04	417.93
478.41	416.71
478.77	418.17
479.14	417.00
479.50	415.93
479.87	416.00
480.23	415.62
480.60	415.26
480.96	414.88
481.33	415.33
481.69	415.50
482.06	415.57
482.42	415.69
482.79	416.43
483.15	416.81
483.52	417.43
483.88	418.12
484.25	418.57
484.61	419.40
484.98	420.00
485.34	421.24
485.71	422.21
486.07	423.00
486.44	422.79
486.80	424.05
487.17	425.74
487.53	428.14
487.90	430.62
488.26	433.81
488.62	436.71
488.99	438.90
489.35	441.86
489.72	444.36
490.08	446.88
490.44	449.33
490.81	452.69
491.17	456.07
491.54	459.76
491.90	463.57
492.26	466.98
492.63	470.83
492.99	474.38
493.36	478.74
493.72	483.88
494.08	487.95
494.45	492.95
494.81	498.17
495.17	502.38
495.54	507.24
495.90	511.86
496.26	516.90
496.63	522.21
496.99	527.52
497.35	533.48
497.72	539.52
498.08	545.76
498.44	551.67
498.80	558.10
499.17	564.57
499.53	570.83
499.89	578.26
500.26	585.17
500.62	592.24
500.98	599.71
501.34	606.45
501.71	613.69
502.07	620.45
502.43	627.21
502.79	634.57
503.16	641.45
503.52	648.38
503.88	655.40
504.24	663.29
504.60	670.64
504.97	678.52
505.33	685.93
505.69	694.45
506.05	702.29
506.41	710.10
506.78	717.55
507.14	724.86
507.50	732.24
507.86	739.26
508.22	746.88
508.59	753.83
508.95	761.88
509.31	770.64
509.67	777.86
510.03	785.43
510.39	792.79
510.75	800.64
511.12	809.05
511.48	816.95
511.84	824.14
512.20	831.76
512.56	839.29
512.92	847.40
513.28	854.26
513.64	861.24
514.00	868.48
514.37	876.00
514.73	883.43
515.09	890.64
515.45	898.14
515.81	905.07
516.17	911.86
516.53	918.33
516.89	923.79
517.25	930.90
517.61	938.55
517.97	945.14
518.33	951.76
518.69	958.45
519.05	965.02
519.41	971.05
519.77	978.60
520.13	984.88
520.49	990.07
520.85	995.76
521.21	1002.43
521.57	1008.17
521.93	1012.98
522.29	1018.88
522.65	1023.81
523.01	1028.98
523.37	1033.52
523.73	1038.98
524.09	1043.57
524.45	1048.48
524.81	1053.71
525.17	1057.93
525.53	1063.17
525.89	1067.17
526.25	1071.60
526.61	1075.24
526.97	1079.29
527.33	1082.67
527.68	1088.21
528.04	1093.14
528.40	1096.76
528.76	1100.48
529.12	1104.81
529.48	1110.17
529.84	1114.21
530.20	1118.40
530.56	1123.50
530.91	1129.00
531.27	1133.36
531.63	1137.74
531.99	1141.90
532.35	1145.95
532.71	1149.64
533.07	1153.43
533.42	1160.33
533.78	1164.62
534.14	1169.00
534.50	1173.00
534.86	1177.79
535.21	1180.02
535.57	1183.50
535.93	1187.69
536.29	1192.52
536.65	1196.02
537.00	1198.43
537.36	1201.60
537.72	1205.31
538.08	1208.52
538.44	1210.93
538.79	1214.05
539.15	1217.21
539.51	1221.07
539.87	1224.29
540.22	1227.64
540.58	1231.62
540.94	1232.31
541.29	1235.02
541.65	1238.17
542.01	1242.05
542.37	1244.33
542.72	1247.10
543.08	1249.79
543.44	1251.95
543.79	1253.21
544.15	1255.74
544.51	1259.86
544.87	1262.60
545.22	1264.93
545.58	1267.55
545.94	1269.93
546.29	1272.38
546.65	1274.83
547.01	1276.81
547.36	1279.17
547.72	1281.98
548.07	1284.17
548.43	1286.93
548.79	1288.36
549.14	1290.48
549.50	1293.00
549.86	1294.52
550.21	1296.86
550.57	1299.74
550.92	1303.05
551.28	1305.95
551.64	1308.79
551.99	1311.10
552.35	1313.76
552.70	1316.40
553.06	1319.74
553.41	1323.45
553.77	1328.60
554.13	1332.24
554.48	1336.43
554.84	1340.79
555.19	1344.79
555.55	1349.17
555.90	1352.69
556.26	1356.90
556.61	1360.74
556.97	1363.50
557.32	1367.88
557.68	1371.55
558.03	1375.02
558.39	1378.31
558.74	1382.31
559.10	1386.60
559.45	1390.76
559.81	1395.62
560.16	1399.81
560.52	1403.14
560.87	1407.64
561.23	1409.86
561.58	1415.36
561.94	1419.12
562.29	1422.26
562.64	1426.48
563.00	1430.24
563.35	1434.86
563.71	1439.33
564.06	1444.88
564.42	1450.40
564.77	1456.07
565.12	1462.45
565.48	1469.57
565.83	1475.50
566.19	1481.02
566.54	1486.17
566.89	1490.90
567.25	1496.60
567.60	1504.02
567.96	1512.21
568.31	1518.38
568.66	1524.90
569.02	1528.62
569.37	1533.88
569.72	1539.71
570.08	1545.07
570.43	1550.55
570.78	1555.88
571.14	1561.55
571.49	1566.19
571.84	1572.26
572.20	1576.24
572.55	1581.12
572.90	1584.24
573.26	1588.60
573.61	1592.71
573.96	1597.17
574.31	1601.88
574.67	1605.31
575.02	1608.19
575.37	1609.40
575.72	1612.05
576.08	1616.33
576.43	1620.40
576.78	1624.48
577.13	1628.76
577.49	1632.05
577.84	1635.24
578.19	1639.05
578.54	1643.50
578.90	1647.64
579.25	1650.21
579.60	1654.00
579.95	1656.45
580.30	1660.52
580.66	1664.69
581.01	1668.57
581.36	1672.55
581.71	1675.07
582.06	1680.26
582.42	1684.43
582.77	1687.67
583.12	1691.31
583.47	1693.93
583.82	1697.86
584.17	1701.74
584.53	1704.93
584.88	1707.88
585.23	1711.81
585.58	1715.21
585.93	1717.50
586.28	1721.26
586.63	1725.17
586.98	1728.45
587.34	1732.74
587.69	1734.83
588.04	1737.14
588.39	1739.50
588.74	1740.90
589.09	1744.21
589.44	1744.60
589.79	1746.86
590.14	1749.95
590.49	1752.17
590.84	1753.36
591.19	1755.64
591.54	1757.31
591.89	1758.90
592.25	1763.29
592.60	1764.57
592.95	1766.17
593.30	1767.83
593.65	1767.60
594.00	1768.12
594.35	1775.55
594.70	1775.83
595.05	1777.55
595.40	1778.98
595.75	1779.79
596.10	1781.38
596.45	1782.43
596.80	1784.14
597.15	1784.45
597.50	1784.05
597.85	1785.76
598.19	1786.48
598.54	1786.98
598.89	1787.74
599.24	1788.90
599.59	1787.93
599.94	1788.14
600.29	1788.62
600.64	1789.26
600.99	1790.74
601.34	1791.43
601.69	1785.00
602.04	1783.57
602.39	1783.21
602.74	1783.52
603.08	1783.05
603.43	1783.93
603.78	1783.64
604.13	1784.14
604.48	1782.98
604.83	1784.05
605.18	1783.12
605.53	1783.40
605.87	1782.19
606.22	1780.88
606.57	1779.67
606.92	1777.95
607.27	1777.74
607.62	1777.12
607.96	1776.50
608.31	1774.40
608.66	1774.02
609.01	1772.86
609.36	1773.57
609.70	1772.31
610.05	1769.69
610.40	1768.57
610.75	1766.29
611.10	1764.93
611.44	1761.38
611.79	1760.55
612.14	1758.52
612.49	1755.38
612.83	1753.14
613.18	1750.26
613.53	1748.12
613.88	1745.31
614.22	1742.71
614.57	1738.93
614.92	1735.36
615.27	1731.69
615.61	1729.17
615.96	1725.12
616.31	1722.33
616.65	1718.52
617.00	1716.05
617.35	1714.14
617.70	1711.62
618.04	1707.93
618.39	1704.07
618.74	1701.24
619.08	1697.12
619.43	1693.19
619.78	1690.26
620.12	1687.17
620.47	1684.55
620.82	1679.67
621.16	1674.74
621.51	1672.07
621.85	1668.07
622.20	1664.86
622.55	1661.02
622.89	1657.64
623.24	1654.81
623.59	1650.71
623.93	1647.62
624.28	1643.29
624.62	1641.02
624.97	1637.76
625.32	1633.69
625.66	1630.00
626.01	1626.21
626.35	1622.74
626.70	1618.71
627.04	1615.88
627.39	1611.48
627.73	1608.48
628.08	1606.69
628.43	1603.64
628.77	1599.21
629.12	1596.02
629.46	1591.60
629.81	1587.52
630.15	1582.24
630.50	1576.57
630.84	1572.26
631.19	1567.02
631.53	1562.12
631.88	1554.67
632.22	1548.10
632.57	1544.52
632.91	1539.52
633.26	1534.71
633.60	1529.76
633.95	1524.45
634.29	1518.31
634.64	1514.17
634.98	1508.90
635.32	1504.55
635.67	1500.43
636.01	1496.31
636.36	1491.45
636.70	1487.02
637.05	1482.19
637.39	1478.29
637.73	1474.79
638.08	1471.17
638.42	1467.33
638.77	1463.26
639.11	1459.24
639.45	1455.24
639.80	1449.83
640.14	1444.62
640.49	1439.07
640.83	1433.69
641.17	1429.19
641.52	1424.48
641.86	1418.40
642.20	1414.00
642.55	1407.90
642.89	1402.45
643.23	1396.14
643.58	1391.02
643.92	1384.81
644.26	1379.21
644.61	1374.26
644.95	1368.00
645.29	1361.83
645.64	1356.40
645.98	1350.43
646.32	1345.60
646.66	1339.88
647.01	1333.45
647.35	1328.88
647.69	1323.93
648.04	1319.31
648.38	1313.93
648.72	1307.74
649.06	1303.10
649.41	1296.36
649.75	1290.07
650.09	1284.69
650.43	1278.45
650.78	1271.95
651.12	1265.86
651.46	1259.57
651.80	1253.10
652.14	1247.64
652.49	1242.38
652.83	1235.67
653.17	1229.26
653.51	1222.24
653.85	1216.36
654.20	1211.57
654.54	1204.36
654.88	1197.74
655.22	1191.50
655.56	1185.10
655.90	1179.52
656.25	1172.45
656.59	1166.31
656.93	1160.00
657.27	1154.74
657.61	1148.95
657.95	1143.98
658.29	1138.05
658.64	1133.05
658.98	1126.60
659.32	1119.98
659.66	1112.76
660.00	1107.36
660.34	1101.76
660.68	1095.93
661.02	1089.55
661.36	1082.93
661.70	1077.55
662.05	1072.00
662.39	1066.40
662.73	1061.38
663.07	1056.26
663.41	1051.12
663.75	1045.36
664.09	1040.31
664.43	1033.98
664.77	1028.21
665.11	1021.45
665.45	1015.69
665.79	1009.83
666.13	1004.33
666.47	998.24
666.81	992.98
667.15	987.24
667.49	981.88
667.83	977.10
668.17	971.67
668.51	966.26
668.85	961.24
669.19	956.76
669.53	950.76
669.87	944.10
670.21	937.88
670.55	931.40
670.89	927.14
671.23	921.60
671.57	915.45
671.91	910.43
672.25	905.19
672.58	901.24
672.92	895.69
673.26	890.19
673.60	884.83
673.94	880.10
674.28	874.50
674.62	870.31
674.96	864.83
675.30	860.74
675.64	855.02
675.97	849.88
676.31	844.17
676.65	838.74
676.99	835.31
677.33	830.31
677.67	826.40
678.01	820.02
678.34	815.00
678.68	810.64
679.02	804.95
679.36	800.33
679.70	794.55
680.04	788.88
680.37	783.83
680.71	779.31
681.05	774.14
681.39	770.02
681.73	764.43
682.06	759.64
682.40	754.57
682.74	751.02
683.08	746.48
683.42	741.57
683.75	737.10
684.09	731.43
684.43	727.19
684.77	721.64
685.10	717.21
685.44	712.76
685.78	707.90
686.12	704.07
686.45	699.38
686.79	695.05
687.13	691.57
687.46	687.67
687.80	683.64
688.14	679.17
688.48	674.43
688.81	669.64
689.15	665.50
689.49	660.55
689.82	655.40
690.16	650.14
690.50	645.71
690.83	641.48
691.17	636.31
691.51	631.81
691.84	628.00
692.18	623.76
692.52	619.43
692.85	615.29
693.19	611.43
693.52	607.07
693.86	602.33
694.20	598.29
694.53	593.98
694.87	589.71
695.21	584.74
695.54	580.31
695.88	575.93
696.21	571.14
696.55	567.55
696.88	563.43
697.22	560.10
697.56	556.83
697.89	552.38
698.23	549.81
698.56	545.24
698.90	541.57
699.23	537.57
699.57	533.48
699.90	529.50
700.24	525.17
700.58	522.00
700.91	518.86
701.25	516.52
701.58	513.50
701.92	510.26
702.25	507.86
702.59	504.43
702.92	501.33
703.26	498.50
703.59	495.21
703.93	493.71
704.26	490.31
704.60	486.45
704.93	483.67
705.26	479.81
705.60	477.76
705.93	474.31
706.27	471.64
706.60	469.24
706.94	467.31
707.27	464.31
707.61	461.24
707.94	458.48
708.27	454.17
708.61	450.76
708.94	447.98
709.28	445.07
709.61	442.31
709.94	440.31
710.28	437.31
710.61	434.55
710.95	430.36
711.28	429.19
711.61	426.88
711.95	424.81
712.28	422.31
712.61	419.31
712.95	418.31
713.28	416.88
713.61	413.93
713.95	410.90
714.28	408.88
714.61	406.17
714.95	403.74
715.28	400.95
715.61	398.76
715.95	396.29
716.28	393.60
716.61	391.60
716.95	388.67
717.28	386.48
717.61	384.17
717.94	382.12
718.28	378.67
718.61	376.64
718.94	374.29
719.27	372.10
719.61	370.31
719.94	367.24
720.27	364.10
720.60	361.88
720.94	360.00
721.27	357.93
721.60	356.38
721.93	354.07
722.27	353.43
722.60	351.71
722.93	350.07
723.26	348.71
723.59	346.71
723.93	345.43
724.26	344.02
724.59	342.52
724.92	341.21
725.25	340.43
725.59	338.67
725.92	337.64
726.25	336.50
726.58	335.38
726.91	333.95
727.24	332.98
727.57	331.74
727.91	329.93
728.24	328.62
728.57	327.21
728.90	326.43
729.23	324.21
729.56	323.69
729.89	322.19
730.22	320.95
730.55	319.62
730.89	318.45
731.22	316.93
731.55	315.60
731.88	314.31
732.21	312.50
732.54	311.57
732.87	310.17
733.20	309.00
733.53	307.52
733.86	306.60
734.19	305.43
734.52	304.88
734.85	305.33
735.18	304.12
735.51	303.88
735.84	303.00
736.17	302.79
736.50	300.88
736.83	302.33
737.16	301.19
737.49	300.67
737.82	299.60
738.15	299.14
738.48	298.38
738.81	297.55
739.14	296.60
739.47	295.48
739.80	294.38
740.13	293.98
740.46	293.02
740.79	291.81
741.12	290.69
741.45	289.24
741.78	287.33
742.11	287.19
742.44	285.93
742.77	285.36
743.10	284.17
743.43	283.57
743.75	280.48
744.08	282.40
744.41	281.29
744.74	280.29
745.07	279.10
745.40	278.57
745.73	278.67
746.06	277.71
746.39	277.31
746.71	276.50
747.04	275.17
747.37	274.29
747.70	274.17
748.03	273.50
748.36	273.24
748.68	272.43
749.01	271.10
749.34	270.52
749.67	269.76
750.00	269.45
750.33	270.19
750.65	269.98
750.98	266.90
751.31	266.40
751.64	266.10
751.97	266.79
752.29	265.95
752.62	264.21
752.95	263.55
753.28	262.69
753.60	262.05
753.93	262.31
754.26	261.88
754.59	260.69
754.91	259.95
755.24	259.19
755.57	258.90
755.90	258.29
756.22	257.21
756.55	256.29
756.88	255.52
757.20	253.57
757.53	252.50
757.86	251.67
758.19	251.21
758.51	250.45
758.84	248.76
759.17	248.12
759.49	247.76
759.82	248.33
760.15	247.95
760.47	247.43
760.80	246.26
761.13	246.29
761.45	245.79
761.78	245.48
762.11	244.98
762.43	243.93
762.76	243.55
763.08	243.57
763.41	243.43
763.74	243.07
764.06	242.71
764.39	242.24
764.71	241.86
765.04	241.33
765.37	240.79
765.69	240.33
766.02	240.05
766.34	239.62
766.67	238.67
767.00	238.67
767.32	239.31
767.65	240.21
767.97	239.69
768.30	239.45
768.62	239.26
768.95	238.98
769.27	238.81
769.60	238.79
769.92	238.24
770.25	237.62
770.57	236.62
770.90	236.19
771.22	235.95
771.55	235.69
771.87	235.57
772.20	235.50
772.52	236.86
772.85	238.88
773.17	238.86
773.50	238.64
773.82	238.14
774.15	237.07
774.47	235.48
774.80	235.26
775.12	234.86
775.45	234.52
775.77	234.36
776.09	234.24
776.42	234.17
776.74	234.38
777.07	234.29
777.39	234.40
777.72	234.36
778.04	234.50
778.36	234.26
778.69	233.86
779.01	233.60
779.33	231.69
779.66	229.40
779.98	228.98
780.31	228.67
780.63	229.31
780.95	229.64
781.28	229.50
781.60	229.12
781.92	229.21
782.25	228.98
782.57	228.76
782.89	228.55
783.22	227.98
783.54	227.36
783.86	227.14
784.19	227.00
784.51	227.12
784.83	226.71
785.16	226.38
785.48	226.55
785.80	226.60
786.12	226.93
786.45	226.74
786.77	226.76
787.09	226.33
787.42	225.52
787.74	225.29
788.06	225.48
788.38	225.26
788.71	224.93
789.03	224.95
789.35	225.14
789.67	224.69
789.99	224.79
790.32	224.40
790.64	224.45
790.96	225.90
791.28	225.36
791.61	225.17
791.93	225.10
792.25	224.71
792.57	226.05
792.89	225.50
793.21	225.67
793.54	225.45
793.86	225.62
794.18	225.71
794.50	225.12
794.82	224.83
795.14	224.98
795.47	225.26
795.79	225.29
796.11	224.90
796.43	224.81
796.75	224.83
797.07	225.17
797.39	224.98
797.71	223.45
798.04	223.57
798.36	223.60
798.68	223.64
799.00	223.81
799.32	222.36
799.64	222.55
799.96	222.29
800.28	222.33
800.60	222.10
800.92	222.24
801.24	222.10
801.56	222.02
801.89	221.71
802.21	221.90
802.53	221.33
802.85	221.67
803.17	222.45
803.49	221.95
803.81	221.50
804.13	221.50
804.45	221.31
804.77	221.19
805.09	221.10
805.41	220.90
805.73	220.26
806.05	219.57
806.37	219.52
806.69	219.17
807.01	219.05
807.33	219.14
807.65	218.17
807.97	219.26
808.28	219.00
808.60	218.86
808.92	218.33
809.24	219.76
809.56	219.36
809.88	218.86
810.20	218.83
810.52	219.17
810.84	218.79
811.16	218.60
811.48	218.38
811.80	218.79
812.12	218.86
812.43	219.52
812.75	220.00
813.07	219.74
813.39	220.10
813.71	220.05
814.03	219.86
814.35	219.95
814.67	218.88
814.98	218.83
815.30	218.79
815.62	218.43
815.94	216.76
816.26	216.62
816.58	216.02
816.89	216.40
817.21	216.05
817.53	216.14
817.85	215.93
818.17	215.98
818.48	215.29
818.80	215.48
819.12	215.02
819.44	214.52
819.76	214.29
820.07	214.29
820.39	214.12
820.71	214.02
821.03	214.02
821.34	214.00
821.66	214.45
821.98	214.60
822.30	214.52
822.61	216.02
822.93	215.74
823.25	215.79
823.57	215.45
823.88	215.69
824.20	215.69
824.52	216.38
824.83	216.31
825.15	216.14
825.47	216.12
825.79	216.24
826.10	216.29
826.42	216.31
826.74	216.31
827.05	216.10
827.37	216.21
827.69	216.31
828.00	216.43
828.32	216.36
828.64	216.02
828.95	216.93
829.27	216.14
829.58	216.36
829.90	216.76
830.22	216.74
830.53	216.45
830.85	216.33
831.17	215.60
831.48	215.50
831.80	215.57
832.11	215.55
832.43	215.07
832.75	215.02
833.06	216.26
833.38	215.64
833.69	215.64
834.01	215.52
834.32	215.24
834.64	215.00
834.96	215.19
835.27	215.19
835.59	214.67
835.90	214.17
836.22	214.02
836.53	213.62
836.85	213.33
837.16	215.10
837.48	214.98
837.79	215.62
838.11	215.64
838.42	215.60
838.74	215.62
839.05	215.76
839.37	215.95
839.68	214.62
840.00	214.64
840.31	215.05
840.63	214.95
840.94	214.74
841.26	214.33
841.57	214.02
841.88	214.26
842.20	214.00
842.51	213.98
842.83	214.14
843.14	216.12
843.46	216.24
843.77	215.52
844.08	215.29
844.40	214.79
844.71	214.86
845.03	214.79
845.34	214.69
845.65	214.79
845.97	214.55
846.28	214.60
846.60	215.00
846.91	214.43
847.22	214.55
847.54	215.05
847.85	215.29
848.16	214.98
848.48	214.71
848.79	215.38
849.10	215.40
849.42	215.57
849.73	213.50
850.04	213.45
850.36	212.40
850.67	212.98
850.98	212.83
851.30	213.05
851.61	213.12
851.92	213.02
852.23	213.45
852.55	213.52
852.86	213.45
853.17	213.17
853.49	213.48
853.80	213.74
854.11	213.81
854.42	214.21
854.74	213.93
855.05	214.02
855.36	213.14
855.67	213.60
855.99	213.29
856.30	215.93
856.61	215.88
856.92	216.24
857.23	216.05
857.55	215.83
857.86	215.52
858.17	215.71
858.48	215.21
858.79	214.67
859.11	214.79
859.42	214.64
859.73	214.40
860.04	214.55
860.35	214.05
860.66	213.60
860.98	213.55
861.29	213.90
861.60	213.60
861.91	214.21
862.22	213.50
862.53	213.21
862.84	210.57
863.16	211.31
863.47	210.79
863.78	210.67
864.09	210.98
864.40	211.00
864.71	210.93
865.02	211.48
865.33	211.48
865.64	211.31
865.95	211.29
866.27	212.60
866.58	212.26
866.89	212.48
867.20	212.52
867.51	212.14
867.82	212.10
868.13	213.19
868.44	212.69
868.75	213.29
869.06	213.43
869.37	213.69
869.68	213.10
869.99	213.67
870.30	213.81
870.61	214.07
870.92	213.90
871.23	213.98
871.54	214.12
871.85	214.45
872.16	215.10
872.47	215.14
872.78	213.79
873.09	214.17
873.40	213.81
873.71	213.83
874.02	213.95
874.33	213.57
874.64	212.69
874.95	212.88
875.26	212.64
875.56	212.64
875.87	212.52
876.18	212.14
876.49	213.86
876.80	213.90
877.11	213.52
877.42	213.38
877.73	213.24
878.04	212.76
878.35	212.86
878.66	212.57
878.96	212.60
879.27	212.83
879.58	212.57
879.89	212.52
880.20	213.26
880.51	213.10
880.82	213.29
881.12	213.57
881.43	213.12
881.74	212.81
882.05	212.81
882.36	213.10
882.67	213.26
882.97	211.12
883.28	210.71
883.59	210.74
883.90	211.24
884.21	211.60
884.51	211.52
884.82	211.14
885.13	210.98
885.44	210.98
885.74	210.86
886.05	210.98
886.36	211.31
886.67	210.21
886.98	211.29
887.28	211.38
887.59	211.12
887.90	211.48
888.20	211.00
888.51	211.55
888.82	211.19
889.13	211.40
889.43	213.02
889.74	213.02
890.05	212.86
890.35	212.64
890.66	212.29
890.97	212.36
891.28	212.21
891.58	212.31
891.89	212.24
892.20	212.24
892.50	212.02
892.81	211.81
893.12	211.93
893.42	211.12
893.73	211.50
894.04	211.52
894.34	211.55
894.65	211.67
894.95	211.12
895.26	211.17
895.57	212.33
895.87	210.55
896.18	211.05
896.48	211.36
896.79	211.19
897.10	211.31
897.40	211.26
897.71	211.55
898.01	211.43
898.32	211.67
898.63	211.86
898.93	212.02
899.24	212.14
899.54	212.07
899.85	211.98
900.15	211.79
900.46	211.98
900.76	212.26
901.07	212.48
901.38	212.55
901.68	212.90
901.99	211.60
902.29	211.60
902.60	211.26
902.90	211.07
903.21	210.93
903.51	211.00
903.82	211.57
904.12	211.55
904.43	211.81
904.73	211.74
905.03	211.76
905.34	213.57
905.64	213.38
905.95	213.50
906.25	213.40
906.56	213.14
906.86	213.21
907.17	212.93
907.47	212.93
907.77	213.02
908.08	212.48
908.38	212.64
908.69	213.00
908.99	213.36
909.30	213.60
909.60	213.86
909.90	213.95
910.21	213.48
910.51	213.29
910.81	213.24
911.12	213.36
911.42	213.19
911.73	211.12
912.03	211.17
912.33	211.67
912.64	211.74
912.94	211.79
913.24	211.19
913.55	210.95
913.85	210.93
914.15	211.17
914.46	211.55
914.76	211.40
915.06	211.14
915.37	210.76
915.67	210.64
915.97	210.71
916.27	210.29
916.58	210.52
916.88	210.45
917.18	210.05
917.49	211.57
917.79	211.52
918.09	211.90
918.39	212.48
918.70	212.21
919.00	212.29
919.30	213.12
919.60	213.14
919.91	213.02
920.21	213.10
920.51	212.64
920.81	212.29
921.12	212.45
921.42	212.50
921.72	212.86
922.02	212.83
922.32	213.02
922.63	213.07
922.93	214.05
923.23	214.12
923.53	214.07
923.83	212.62
924.13	212.81
924.44	212.90
924.74	213.12
925.04	213.62
925.34	213.31
925.64	212.38
925.94	212.43
926.24	213.83
926.55	213.79
926.85	214.02
927.15	214.26
927.45	214.26
927.75	214.29
928.05	214.19
928.35	213.95
928.65	214.17
928.95	214.50
929.26	213.29
929.56	213.71
929.86	214.10
930.16	213.81
930.46	213.55
930.76	213.26
931.06	212.38
931.36	211.98
931.66	212.48
931.96	212.83
932.26	213.26
932.56	212.10
932.86	212.19
933.16	212.45
933.46	212.31
933.76	212.24
934.06	212.60
934.36	213.29
934.66	213.45
934.96	213.29
935.26	213.40
935.56	213.90
935.86	213.05
936.16	212.74
936.46	212.57
936.76	212.52
937.06	212.57
937.36	212.71
937.66	212.67
937.96	212.52
938.26	211.81
938.56	211.50
938.86	211.93
939.16	212.57
939.46	212.38
939.76	212.50
940.06	212.33
940.35	211.95
940.65	210.83
940.95	210.93
941.25	210.31
941.55	209.88
941.85	209.86
942.15	210.60
942.45	211.07
942.75	211.17
943.04	211.29
943.34	211.67
943.64	211.52
943.94	211.14
944.24	211.05
944.54	211.52
944.84	211.43
945.13	210.88
945.43	210.38
945.73	210.50
946.03	210.19
946.33	209.95
946.62	209.86
946.92	209.86
947.22	210.05
947.52	210.36
947.82	210.57
948.11	210.21
948.41	209.88
948.71	209.36
949.01	209.40
949.31	209.29
949.60	208.90
949.90	209.36
950.20	209.55
950.50	209.76
950.79	209.64
951.09	209.74
951.39	209.88
951.69	209.62
951.98	209.83
952.28	210.00
952.58	210.26
952.87	210.17
953.17	210.43
953.47	209.88
953.76	209.90
954.06	209.67
954.36	209.64
954.66	209.52
954.95	210.19
955.25	210.43
955.55	210.62
955.84	210.71
956.14	210.88
956.44	210.69
956.73	210.19
957.03	210.36
957.32	210.36
957.62	210.26
957.92	210.83
958.21	210.50
958.51	213.05
958.81	213.36
959.10	213.67
959.40	214.00
959.69	214.40
959.99	214.52
960.29	214.52
960.58	214.21
960.88	214.93
961.17	214.50
961.47	214.57
961.76	214.50
962.06	214.52
962.36	214.05
962.65	214.24
962.95	214.38
963.24	214.14
963.54	214.29
963.83	214.50
964.13	214.33
964.42	213.93
964.72	211.79
965.01	211.76
965.31	211.36
965.60	210.98
965.90	212.29
966.19	211.83
966.49	211.79
966.78	211.57
967.08	211.55
967.37	211.71
967.67	211.26
967.96	211.43
968.26	211.43
968.55	211.86
968.85	211.83
969.14	212.00
969.43	211.98
969.73	212.07
970.02	211.86
970.32	211.60
970.61	211.55
970.91	211.26
971.20	210.83
971.49	210.86
971.79	211.31
972.08	209.67
972.38	209.90
972.67	209.90
972.96	210.55
973.26	210.02
973.55	210.38
973.85	210.26
974.14	210.19
974.43	210.21
974.73	209.74
975.02	209.52
975.31	209.36
975.61	209.45
975.90	209.10
976.19	208.98
976.49	209.33
976.78	209.40
977.07	209.43
977.37	209.55
977.66	209.79
977.95	209.29
978.24	209.48
978.54	209.71
978.83	209.62
979.12	209.45
979.42	209.48
979.71	209.19
980.00	209.31
980.29	209.43
980.59	208.98
980.88	209.57
981.17	209.62
981.46	209.71
981.76	209.76
982.05	210.38
982.34	210.55
982.63	210.55
982.93	210.71
983.22	211.29
983.51	211.38
983.80	211.76
984.09	212.24
984.39	212.14
984.68	212.19
984.97	212.36
985.26	212.14
985.55	212.29
985.85	211.83
986.14	212.19
986.43	212.38
986.72	212.36
987.01	211.60
987.30	211.64
987.59	211.64
987.89	211.55
988.18	210.83
988.47	210.71
988.76	210.45
989.05	210.31
989.34	209.69
989.63	210.19
989.92	209.81
990.22	209.43
990.51	209.45
990.80	209.33
991.09	209.64
991.38	210.00
991.67	209.62
991.96	209.62
992.25	209.50
992.54	209.21
992.83	209.19
993.12	209.55
993.41	209.81
993.70	210.48
993.99	210.76
994.28	211.38
994.58	211.62
994.87	211.45
995.16	211.48
995.45	211.38
995.74	210.57
996.03	210.98
996.32	211.07
996.61	211.45
996.90	211.29
997.19	211.07
997.48	210.93
997.77	211.00
998.06	211.17
998.34	211.10
998.63	210.93
998.92	211.19
999.21	211.19
999.50	211.17
999.79	210.33
1000.08	210.33
1000.37	210.21
1000.66	209.69
1000.95	210.29
1001.24	210.38
1001.53	210.71
1001.82	210.83
1002.11	210.38
1002.40	210.64
1002.68	211.00
1002.97	212.48
1003.26	212.12
1003.55	212.12
1003.84	212.10
1004.13	212.57
1004.42	212.55
1004.71	212.67
1004.99	212.48
1005.28	213.24
1005.57	213.26
1005.86	213.12
1006.15	213.02
1006.44	212.83
1006.72	213.57
1007.01	213.14
1007.30	213.17
1007.59	212.86
1007.88	212.90
1008.17	212.86
1008.45	212.43
1008.74	211.74
1009.03	210.93
1009.32	211.07
1009.60	211.02
1009.89	211.00
1010.18	210.19
1010.47	210.12
1010.76	209.98
1011.04	210.05
1011.33	209.90
1011.62	210.00
1011.91	210.14
1012.19	210.33
1012.48	210.24
1012.77	209.90
1013.05	210.90
1013.34	211.05
1013.63	211.12
1013.92	211.14
1014.20	211.17
1014.49	211.40
1014.78	211.50
1015.06	210.71
1015.35	210.69
1015.64	210.90
1015.92	211.24
1016.21	211.43
1016.50	211.33
1016.78	211.67
1017.07	211.60
1017.36	211.07
1017.64	210.60
1017.93	210.86
1018.22	210.57
1018.50	210.55
1018.79	210.33
1019.08	209.17
1019.36	209.07
1019.65	208.79
1019.93	209.26
1020.22	209.40
1020.51	210.36
1020.79	210.14
1021.08	208.50
1021.36	207.50
1021.65	205.50
1021.94	207.00
1022.22	210.50
1022.51	204.00
1022.79	218.50
1023.08	211.00
1023.36	234.00
1023.65	205.00
>>>>>End Processed Spectral Data<<<<<
