SpectraSuite Data File
++++++++++++++++++++++++++++++++++++
Date: Tue Apr 02 18:43:03 EDT 2013
User: group
Dark Spectrum Present: No
Reference Spectrum Present: No
Number of Sampled Component Spectra: 1
Spectrometers: USB2E7196
Integration Time (usec): 580000 (USB2E7196)
Spectra Averaged: 2 (USB2E7196)
Boxcar Smoothing: 10 (USB2E7196)
Correct for Electrical Dark: No (USB2E7196)
Strobe/Lamp Enabled: No (USB2E7196)
Correct for Detector Non-linearity: No (USB2E7196)
Correct for Stray Light: No (USB2E7196)
Number of Pixels in Processed Spectrum: 2048
>>>>>Begin Processed Spectral Data<<<<<
339.09	0.00
339.48	190.00
339.86	193.00
340.24	193.00
340.63	200.50
341.01	233.50
341.39	201.00
341.78	205.00
342.16	214.50
342.54	205.50
342.93	197.43
343.31	207.38
343.69	208.29
344.07	208.83
344.46	209.64
344.84	210.19
345.22	208.95
345.60	209.43
345.99	209.71
346.37	209.71
346.75	209.79
347.13	209.88
347.52	210.05
347.90	210.83
348.28	211.05
348.66	211.64
349.05	210.98
349.43	211.05
349.81	211.31
350.19	211.40
350.57	211.64
350.96	211.95
351.34	212.21
351.72	212.31
352.10	212.38
352.48	212.48
352.87	212.21
353.25	212.31
353.63	212.12
354.01	212.05
354.39	211.81
354.77	212.00
355.15	212.60
355.54	212.60
355.92	211.83
356.30	211.88
356.68	213.05
357.06	213.31
357.44	213.07
357.82	213.26
358.20	214.33
358.58	214.26
358.97	214.24
359.35	214.48
359.73	214.83
360.11	215.07
360.49	214.95
360.87	215.12
361.25	215.24
361.63	215.88
362.01	216.12
362.39	216.24
362.77	216.55
363.15	216.67
363.53	216.55
363.91	216.62
364.29	216.33
364.67	214.45
365.05	214.52
365.43	214.86
365.81	214.86
366.19	215.07
366.57	215.98
366.95	215.88
367.33	215.33
367.71	215.19
368.09	215.55
368.47	215.74
368.85	215.90
369.23	216.33
369.61	215.69
369.99	216.38
370.37	216.55
370.75	217.12
371.13	216.64
371.51	216.48
371.89	216.69
372.27	216.88
372.65	217.12
373.03	217.00
373.41	216.83
373.78	216.88
374.16	215.60
374.54	214.81
374.92	214.83
375.30	214.98
375.68	214.62
376.06	214.67
376.44	214.24
376.82	214.24
377.19	214.02
377.57	214.14
377.95	213.45
378.33	213.29
378.71	212.12
379.09	212.45
379.47	212.69
379.84	212.62
380.22	212.57
380.60	212.19
380.98	212.31
381.36	212.19
381.73	211.83
382.11	212.45
382.49	212.52
382.87	212.17
383.25	212.19
383.62	214.52
384.00	214.05
384.38	214.57
384.76	215.05
385.13	215.83
385.51	215.88
385.89	215.74
386.27	215.98
386.64	216.29
387.02	216.05
387.40	215.83
387.78	215.98
388.15	215.90
388.53	215.86
388.91	215.88
389.29	215.86
389.66	215.90
390.04	215.57
390.42	215.93
390.79	215.98
391.17	215.74
391.55	213.57
391.92	213.76
392.30	213.81
392.68	213.38
393.05	213.38
393.43	213.38
393.81	213.38
394.18	212.93
394.56	213.36
394.94	213.93
395.31	213.88
395.69	214.45
396.06	214.88
396.44	215.05
396.82	214.83
397.19	216.07
397.57	216.19
397.95	216.38
398.32	215.69
398.70	215.93
399.07	216.67
399.45	216.64
399.82	216.38
400.20	216.10
400.58	215.90
400.95	215.17
401.33	215.57
401.70	217.00
402.08	217.26
402.45	217.12
402.83	217.60
403.20	217.90
403.58	217.69
403.95	218.07
404.33	218.52
404.71	218.98
405.08	219.88
405.46	220.00
405.83	220.50
406.21	220.93
406.58	221.38
406.96	221.62
407.33	222.36
407.70	223.21
408.08	225.62
408.45	226.67
408.83	227.71
409.20	228.12
409.58	227.57
409.95	228.57
410.33	229.36
410.70	229.40
411.08	230.67
411.45	231.52
411.82	232.36
412.20	234.12
412.57	236.52
412.95	236.10
413.32	237.88
413.69	238.90
414.07	240.86
414.44	242.71
414.82	244.45
415.19	246.74
415.56	248.81
415.94	249.90
416.31	252.50
416.68	255.07
417.06	258.36
417.43	262.12
417.81	265.74
418.18	269.57
418.55	273.40
418.93	277.33
419.30	281.60
419.67	285.98
420.04	290.02
420.42	294.33
420.79	301.69
421.16	307.02
421.54	314.43
421.91	320.26
422.28	326.50
422.66	333.26
423.03	340.90
423.40	347.76
423.77	354.74
424.15	361.98
424.52	369.76
424.89	378.38
425.26	385.62
425.64	393.45
426.01	401.57
426.38	410.60
426.75	420.29
427.13	429.60
427.50	439.31
427.87	449.71
428.24	459.45
428.61	467.71
428.99	479.57
429.36	489.98
429.73	501.55
430.10	512.95
430.47	524.71
430.85	535.64
431.22	548.50
431.59	563.60
431.96	576.17
432.33	590.36
432.70	603.79
433.08	619.98
433.45	635.24
433.82	650.31
434.19	667.14
434.56	683.55
434.93	699.31
435.30	715.40
435.68	732.57
436.05	750.21
436.42	767.02
436.79	782.71
437.16	799.86
437.53	817.29
437.90	835.40
438.27	852.86
438.64	871.14
439.01	888.05
439.38	901.55
439.75	916.52
440.13	933.24
440.50	949.21
440.87	962.21
441.24	975.00
441.61	990.14
441.98	1000.83
442.35	1013.05
442.72	1026.36
443.09	1039.60
443.46	1047.64
443.83	1052.19
444.20	1056.81
444.57	1062.86
444.94	1066.74
445.31	1070.26
445.68	1075.64
446.05	1077.38
446.42	1075.48
446.79	1074.62
447.16	1073.02
447.53	1072.00
447.90	1066.17
448.27	1060.00
448.64	1051.95
449.01	1046.31
449.37	1035.31
449.74	1024.79
450.11	1013.55
450.48	998.29
450.85	982.52
451.22	969.21
451.59	957.57
451.96	946.24
452.33	930.81
452.70	916.45
453.07	899.95
453.43	880.31
453.80	864.19
454.17	848.93
454.54	833.57
454.91	816.69
455.28	800.43
455.65	784.50
456.02	773.24
456.38	760.21
456.75	744.36
457.12	730.60
457.49	717.62
457.86	702.98
458.23	693.29
458.59	681.71
458.96	670.26
459.33	659.38
459.70	648.95
460.07	640.19
460.43	629.88
460.80	621.17
461.17	614.48
461.54	605.88
461.91	597.64
462.27	589.17
462.64	582.79
463.01	575.90
463.38	570.36
463.74	558.88
464.11	551.50
464.48	545.83
464.85	539.50
465.21	535.07
465.58	530.43
465.95	523.60
466.32	517.98
466.68	512.83
467.05	507.93
467.42	502.76
467.78	497.33
468.15	492.52
468.52	488.88
468.88	482.50
469.25	477.95
469.62	474.45
469.98	470.45
470.35	466.74
470.72	462.57
471.08	457.36
471.45	455.02
471.82	452.90
472.18	449.24
472.55	447.10
472.92	443.33
473.28	440.00
473.65	437.43
474.02	435.36
474.38	433.26
474.75	431.40
475.11	429.31
475.48	427.64
475.85	425.86
476.21	423.43
476.58	422.76
476.94	421.57
477.31	420.19
477.67	418.86
478.04	417.21
478.41	417.02
478.77	418.26
479.14	417.02
479.50	416.33
479.87	416.36
480.23	415.76
480.60	415.24
480.96	415.45
481.33	416.26
481.69	416.50
482.06	416.62
482.42	417.24
482.79	417.83
483.15	418.43
483.52	419.29
483.88	419.90
484.25	420.14
484.61	420.50
484.98	421.33
485.34	422.90
485.71	425.38
486.07	426.31
486.44	426.10
486.80	427.31
487.17	428.45
487.53	430.60
487.90	432.60
488.26	435.64
488.62	438.33
488.99	439.95
489.35	441.98
489.72	444.52
490.08	446.64
490.44	449.10
490.81	452.12
491.17	455.21
491.54	459.43
491.90	463.00
492.26	466.86
492.63	470.71
492.99	474.24
493.36	477.90
493.72	482.45
494.08	486.60
494.45	491.76
494.81	497.05
495.17	501.64
495.54	507.02
495.90	511.67
496.26	516.67
496.63	522.40
496.99	527.50
497.35	533.50
497.72	539.67
498.08	545.62
498.44	552.07
498.80	558.52
499.17	563.98
499.53	570.21
499.89	577.40
500.26	584.38
500.62	591.67
500.98	599.14
501.34	606.17
501.71	613.79
502.07	620.95
502.43	627.90
502.79	634.26
503.16	641.21
503.52	648.52
503.88	655.24
504.24	662.43
504.60	670.83
504.97	678.38
505.33	685.60
505.69	694.69
506.05	701.88
506.41	709.36
506.78	716.88
507.14	724.52
507.50	731.93
507.86	739.76
508.22	747.86
508.59	754.74
508.95	762.55
509.31	770.86
509.67	778.33
510.03	785.98
510.39	794.64
510.75	802.79
511.12	810.62
511.48	818.36
511.84	826.02
512.20	833.43
512.56	841.36
512.92	849.57
513.28	856.38
513.64	863.79
514.00	871.24
514.37	879.12
514.73	886.79
515.09	894.36
515.45	900.98
515.81	907.52
516.17	913.74
516.53	919.69
516.89	925.17
517.25	931.71
517.61	938.93
517.97	945.26
518.33	951.62
518.69	957.93
519.05	964.95
519.41	971.83
519.77	979.26
520.13	984.86
520.49	989.48
520.85	995.17
521.21	1001.64
521.57	1007.67
521.93	1012.69
522.29	1018.26
522.65	1022.57
523.01	1028.52
523.37	1033.71
523.73	1039.90
524.09	1045.24
524.45	1050.21
524.81	1055.00
525.17	1060.02
525.53	1064.76
525.89	1069.64
526.25	1075.19
526.61	1078.81
526.97	1082.69
527.33	1085.95
527.68	1092.10
528.04	1097.24
528.40	1101.21
528.76	1105.62
529.12	1110.12
529.48	1115.24
529.84	1119.86
530.20	1125.14
530.56	1129.07
530.91	1133.21
531.27	1137.17
531.63	1141.83
531.99	1146.21
532.35	1150.45
532.71	1154.21
533.07	1158.76
533.42	1164.90
533.78	1167.86
534.14	1172.60
534.50	1176.64
534.86	1181.60
535.21	1184.21
535.57	1189.19
535.93	1193.12
536.29	1197.88
536.65	1201.62
537.00	1204.02
537.36	1207.74
537.72	1210.43
538.08	1214.62
538.44	1218.07
538.79	1222.40
539.15	1225.79
539.51	1229.43
539.87	1232.71
540.22	1235.90
540.58	1239.10
540.94	1240.21
541.29	1244.45
541.65	1246.86
542.01	1249.79
542.37	1252.17
542.72	1254.10
543.08	1255.69
543.44	1258.98
543.79	1259.67
544.15	1262.12
544.51	1266.88
544.87	1269.21
545.22	1272.57
545.58	1274.55
545.94	1277.52
546.29	1279.86
546.65	1282.90
547.01	1285.43
547.36	1288.40
547.72	1290.83
548.07	1293.88
548.43	1296.74
548.79	1298.21
549.14	1301.05
549.50	1304.40
549.86	1306.21
550.21	1310.05
550.57	1313.86
550.92	1315.79
551.28	1319.69
551.64	1322.93
551.99	1324.90
552.35	1328.07
552.70	1331.21
553.06	1334.64
553.41	1337.40
553.77	1341.62
554.13	1345.14
554.48	1349.40
554.84	1354.29
555.19	1358.74
555.55	1364.48
555.90	1367.98
556.26	1372.07
556.61	1375.52
556.97	1378.74
557.32	1383.00
557.68	1386.33
558.03	1390.31
558.39	1395.21
558.74	1399.55
559.10	1402.74
559.45	1407.26
559.81	1411.67
560.16	1415.67
560.52	1419.79
560.87	1424.83
561.23	1428.00
561.58	1433.79
561.94	1437.31
562.29	1440.40
562.64	1444.64
563.00	1447.05
563.35	1451.26
563.71	1456.48
564.06	1462.62
564.42	1468.24
564.77	1473.90
565.12	1479.98
565.48	1487.07
565.83	1493.45
566.19	1498.26
566.54	1503.93
566.89	1509.12
567.25	1515.24
567.60	1523.00
567.96	1530.88
568.31	1537.52
568.66	1544.88
569.02	1548.48
569.37	1554.02
569.72	1559.95
570.08	1564.69
570.43	1569.55
570.78	1576.10
571.14	1581.64
571.49	1586.93
571.84	1592.17
572.20	1598.10
572.55	1603.21
572.90	1606.60
573.26	1610.90
573.61	1616.33
573.96	1622.38
574.31	1627.19
574.67	1630.79
575.02	1632.98
575.37	1635.10
575.72	1637.76
576.08	1641.36
576.43	1644.86
576.78	1649.26
577.13	1653.33
577.49	1657.48
577.84	1662.26
578.19	1666.21
578.54	1670.81
578.90	1674.74
579.25	1677.88
579.60	1679.93
579.95	1681.79
580.30	1685.67
580.66	1689.26
581.01	1692.48
581.36	1694.36
581.71	1697.86
582.06	1702.14
582.42	1706.48
582.77	1709.21
583.12	1712.62
583.47	1714.93
583.82	1719.02
584.17	1721.76
584.53	1725.14
584.88	1728.50
585.23	1731.45
585.58	1733.24
585.93	1734.64
586.28	1736.14
586.63	1739.36
586.98	1742.36
587.34	1746.12
587.69	1747.98
588.04	1749.31
588.39	1751.55
588.74	1753.10
589.09	1755.21
589.44	1755.05
589.79	1756.00
590.14	1758.29
590.49	1759.55
590.84	1760.33
591.19	1762.10
591.54	1763.60
591.89	1764.10
592.25	1767.17
592.60	1767.33
592.95	1769.12
593.30	1770.83
593.65	1772.24
594.00	1771.88
594.35	1777.55
594.70	1777.74
595.05	1778.88
595.40	1779.57
595.75	1779.64
596.10	1781.83
596.45	1782.21
596.80	1783.83
597.15	1784.64
597.50	1784.52
597.85	1786.50
598.19	1787.02
598.54	1787.45
598.89	1788.29
599.24	1789.43
599.59	1787.90
599.94	1787.86
600.29	1788.52
600.64	1788.43
600.99	1788.60
601.34	1789.62
601.69	1785.21
602.04	1785.00
602.39	1783.83
602.74	1784.40
603.08	1784.60
603.43	1784.62
603.78	1783.95
604.13	1783.93
604.48	1783.05
604.83	1784.14
605.18	1782.81
605.53	1782.93
605.87	1780.90
606.22	1780.21
606.57	1778.67
606.92	1777.05
607.27	1777.14
607.62	1775.17
607.96	1774.02
608.31	1773.48
608.66	1772.07
609.01	1769.81
609.36	1769.17
609.70	1767.93
610.05	1765.55
610.40	1763.50
610.75	1760.52
611.10	1759.29
611.44	1756.40
611.79	1754.98
612.14	1751.33
612.49	1747.74
612.83	1744.57
613.18	1742.40
613.53	1739.00
613.88	1735.74
614.22	1732.88
614.57	1728.05
614.92	1724.29
615.27	1720.64
615.61	1716.29
615.96	1712.40
616.31	1708.48
616.65	1705.88
617.00	1702.26
617.35	1699.40
617.70	1695.33
618.04	1691.81
618.39	1687.45
618.74	1683.76
619.08	1679.29
619.43	1676.40
619.78	1672.86
620.12	1669.88
620.47	1666.79
620.82	1662.26
621.16	1657.74
621.51	1654.79
621.85	1651.69
622.20	1647.67
622.55	1643.76
622.89	1640.00
623.24	1637.02
623.59	1634.07
623.93	1628.40
624.28	1623.90
624.62	1621.38
624.97	1618.52
625.32	1614.02
625.66	1609.67
626.01	1605.14
626.35	1601.48
626.70	1597.45
627.04	1594.52
627.39	1589.33
627.73	1584.93
628.08	1582.00
628.43	1578.48
628.77	1573.29
629.12	1570.17
629.46	1566.90
629.81	1562.74
630.15	1557.98
630.50	1552.45
630.84	1547.02
631.19	1542.02
631.53	1537.02
631.88	1529.69
632.22	1523.43
632.57	1519.43
632.91	1514.43
633.26	1510.21
633.60	1504.95
633.95	1498.31
634.29	1492.31
634.64	1488.21
634.98	1481.93
635.32	1477.19
635.67	1473.52
636.01	1469.83
636.36	1463.88
636.70	1459.24
637.05	1453.64
637.39	1448.67
637.73	1443.90
638.08	1440.02
638.42	1435.60
638.77	1431.21
639.11	1425.98
639.45	1421.36
639.80	1415.50
640.14	1410.86
640.49	1405.69
640.83	1399.98
641.17	1395.21
641.52	1389.43
641.86	1382.81
642.20	1379.48
642.55	1373.05
642.89	1365.93
643.23	1358.98
643.58	1353.57
643.92	1346.57
644.26	1340.17
644.61	1334.60
644.95	1328.29
645.29	1321.29
645.64	1315.02
645.98	1308.45
646.32	1303.33
646.66	1296.81
647.01	1290.38
647.35	1284.29
647.69	1278.55
648.04	1273.07
648.38	1266.57
648.72	1261.24
649.06	1255.81
649.41	1248.40
649.75	1242.10
650.09	1235.93
650.43	1229.52
650.78	1222.74
651.12	1216.67
651.46	1210.40
651.80	1204.00
652.14	1197.45
652.49	1191.98
652.83	1185.21
653.17	1178.76
653.51	1171.60
653.85	1165.69
654.20	1158.95
654.54	1151.62
654.88	1144.79
655.22	1138.50
655.56	1132.55
655.90	1125.88
656.25	1118.81
656.59	1112.71
656.93	1106.14
657.27	1100.86
657.61	1094.10
657.95	1088.02
658.29	1081.21
658.64	1075.38
658.98	1068.40
659.32	1062.38
659.66	1054.88
660.00	1048.79
660.34	1042.69
660.68	1035.98
661.02	1029.60
661.36	1023.83
661.70	1017.93
662.05	1011.43
662.39	1005.19
662.73	999.33
663.07	994.36
663.41	988.33
663.75	982.07
664.09	976.10
664.43	969.31
664.77	963.95
665.11	957.05
665.45	951.60
665.79	945.83
666.13	940.26
666.47	934.05
666.81	929.05
667.15	923.31
667.49	917.55
667.83	912.79
668.17	906.60
668.51	900.76
668.85	895.10
669.19	890.38
669.53	883.79
669.87	877.55
670.21	870.50
670.55	864.88
670.89	859.98
671.23	854.52
671.57	848.67
671.91	843.21
672.25	838.14
672.58	833.24
672.92	827.64
673.26	822.19
673.60	817.12
673.94	811.29
674.28	805.93
674.62	801.24
674.96	795.64
675.30	790.74
675.64	786.31
675.97	781.60
676.31	775.55
676.65	770.76
676.99	766.86
677.33	762.10
677.67	757.74
678.01	751.93
678.34	746.88
678.68	742.38
679.02	737.00
679.36	732.50
679.70	726.83
680.04	721.69
680.37	716.43
680.71	711.48
681.05	707.45
681.39	703.05
681.73	698.36
682.06	693.67
682.40	689.50
682.74	684.52
683.08	680.57
683.42	675.67
683.75	671.60
684.09	666.36
684.43	661.33
684.77	655.98
685.10	651.64
685.44	646.88
685.78	642.07
686.12	637.60
686.45	632.29
686.79	627.74
687.13	623.95
687.46	619.93
687.80	616.67
688.14	612.00
688.48	608.21
688.81	603.88
689.15	600.52
689.49	595.98
689.82	592.10
690.16	586.67
690.50	582.76
690.83	578.45
691.17	574.02
691.51	570.52
691.84	566.90
692.18	562.71
692.52	559.05
692.85	555.57
693.19	552.69
693.52	549.40
693.86	545.40
694.20	541.36
694.53	538.17
694.87	533.88
695.21	529.95
695.54	525.50
695.88	521.12
696.21	516.33
696.55	512.76
696.88	508.90
697.22	505.14
697.56	502.05
697.89	498.05
698.23	494.98
698.56	491.14
698.90	488.17
699.23	484.69
699.57	481.57
699.90	477.86
700.24	473.90
700.58	470.86
700.91	468.02
701.25	466.52
701.58	463.79
701.92	460.79
702.25	458.00
702.59	454.93
702.92	452.62
703.26	450.02
703.59	447.21
703.93	445.98
704.26	443.90
704.60	441.19
704.93	438.21
705.26	435.17
705.60	432.93
705.93	429.93
706.27	428.14
706.60	426.14
706.94	424.52
707.27	421.64
707.61	419.17
707.94	416.81
708.27	412.76
708.61	410.00
708.94	407.38
709.28	404.83
709.61	402.64
709.94	400.07
710.28	397.60
710.61	395.17
710.95	391.24
711.28	390.36
711.61	387.83
711.95	386.50
712.28	384.64
712.61	382.10
712.95	381.40
713.28	379.60
713.61	377.05
713.95	374.19
714.28	372.83
714.61	370.64
714.95	368.57
715.28	366.52
715.61	364.24
715.95	362.62
716.28	360.71
716.61	359.02
716.95	357.02
717.28	355.17
717.61	353.36
717.94	351.55
718.28	348.48
718.61	346.83
718.94	344.57
719.27	342.33
719.61	340.86
719.94	338.00
720.27	335.14
720.60	333.48
720.94	332.05
721.27	330.38
721.60	329.50
721.93	328.07
722.27	327.36
722.60	326.12
722.93	324.45
723.26	322.93
723.59	321.52
723.93	320.50
724.26	319.50
724.59	318.36
724.92	317.57
725.25	316.50
725.59	315.24
725.92	314.71
726.25	313.71
726.58	312.67
726.91	311.93
727.24	311.33
727.57	310.00
727.91	308.43
728.24	307.36
728.57	305.62
728.90	304.57
729.23	302.69
729.56	302.69
729.89	301.55
730.22	300.69
730.55	299.45
730.89	298.60
731.22	297.26
731.55	295.98
731.88	294.74
732.21	293.45
732.54	292.40
732.87	291.00
733.20	290.29
733.53	289.52
733.86	288.69
734.19	287.33
734.52	286.90
734.85	287.64
735.18	286.64
735.51	286.60
735.84	286.05
736.17	285.88
736.50	283.93
736.83	285.52
737.16	284.86
737.49	284.45
737.82	283.26
738.15	282.88
738.48	282.10
738.81	281.33
739.14	280.60
739.47	279.90
739.80	279.07
740.13	278.52
740.46	277.43
740.79	276.21
741.12	275.48
741.45	274.40
741.78	272.50
742.11	272.50
742.44	271.21
742.77	270.55
743.10	269.55
743.43	268.88
743.75	265.93
744.08	267.81
744.41	266.76
744.74	266.14
745.07	264.95
745.40	264.67
745.73	264.79
746.06	264.19
746.39	263.45
746.71	263.10
747.04	261.90
747.37	261.26
747.70	261.31
748.03	261.00
748.36	260.57
748.68	260.17
749.01	258.74
749.34	258.14
749.67	257.71
750.00	257.57
750.33	258.43
750.65	258.45
750.98	255.33
751.31	255.07
751.64	254.79
751.97	255.69
752.29	254.95
752.62	253.48
752.95	252.74
753.28	252.10
753.60	251.43
753.93	251.93
754.26	251.55
754.59	250.52
754.91	249.98
755.24	249.71
755.57	248.95
755.90	248.60
756.22	248.07
756.55	247.26
756.88	246.19
757.20	244.38
757.53	243.05
757.86	242.79
758.19	242.26
758.51	241.67
758.84	240.26
759.17	239.83
759.49	239.81
759.82	240.71
760.15	240.76
760.47	240.31
760.80	239.36
761.13	239.62
761.45	239.14
761.78	238.86
762.11	238.57
762.43	238.36
762.76	238.10
763.08	238.00
763.41	237.83
763.74	237.95
764.06	237.76
764.39	237.74
764.71	237.26
765.04	236.98
765.37	236.52
765.69	236.10
766.02	235.86
766.34	235.45
766.67	234.33
767.00	234.48
767.32	235.33
767.65	236.19
767.97	235.21
768.30	235.00
768.62	234.81
768.95	234.29
769.27	234.07
769.60	234.17
769.92	233.90
770.25	233.36
770.57	232.67
770.90	232.40
771.22	231.93
771.55	231.93
771.87	231.71
772.20	231.45
772.52	232.83
772.85	235.17
773.17	235.07
773.50	234.62
773.82	233.95
774.15	232.64
774.47	231.24
774.80	231.24
775.12	231.05
775.45	230.62
775.77	230.50
776.09	230.26
776.42	230.10
776.74	230.26
777.07	230.12
777.39	230.02
777.72	229.67
778.04	230.02
778.36	229.36
778.69	229.31
779.01	229.40
779.33	227.43
779.66	225.02
779.98	224.55
780.31	224.60
780.63	225.48
780.95	226.05
781.28	225.81
781.60	225.38
781.92	225.24
782.25	225.26
782.57	225.07
782.89	224.95
783.22	224.60
783.54	224.12
783.86	224.19
784.19	224.00
784.51	224.52
784.83	223.86
785.16	223.88
785.48	223.64
785.80	223.69
786.12	224.05
786.45	223.71
786.77	223.74
787.09	223.50
787.42	222.31
787.74	222.00
788.06	221.79
788.38	221.74
788.71	221.24
789.03	221.05
789.35	221.12
789.67	220.71
789.99	220.71
790.32	220.43
790.64	220.26
790.96	222.00
791.28	221.12
791.61	221.31
791.93	221.29
792.25	221.36
792.57	222.48
792.89	221.90
793.21	222.17
793.54	222.17
793.86	221.93
794.18	222.40
794.50	222.12
794.82	222.50
795.14	222.81
795.47	223.40
795.79	223.55
796.11	222.98
796.43	222.83
796.75	222.90
797.07	222.86
797.39	222.83
797.71	221.24
798.04	221.40
798.36	221.67
798.68	221.57
799.00	221.76
799.32	220.48
799.64	221.12
799.96	220.90
800.28	221.40
800.60	221.33
800.92	221.36
801.24	220.95
801.56	220.81
801.89	220.52
802.21	220.60
802.53	220.14
802.85	220.79
803.17	221.76
803.49	221.19
803.81	221.00
804.13	220.83
804.45	220.43
804.77	220.60
805.09	220.12
805.41	220.00
805.73	219.38
806.05	219.10
806.37	218.67
806.69	218.57
807.01	218.05
807.33	218.31
807.65	217.36
807.97	218.62
808.28	218.48
808.60	218.43
808.92	217.86
809.24	219.43
809.56	218.98
809.88	218.26
810.20	218.36
810.52	218.76
810.84	218.43
811.16	218.31
811.48	218.07
811.80	218.95
812.12	218.86
812.43	219.48
812.75	219.71
813.07	219.48
813.39	219.62
813.71	219.43
814.03	219.05
814.35	219.05
814.67	218.02
814.98	217.93
815.30	217.90
815.62	217.64
815.94	216.05
816.26	215.93
816.58	215.52
816.89	215.62
817.21	215.19
817.53	215.33
817.85	215.12
818.17	215.19
818.48	214.29
818.80	214.86
819.12	214.55
819.44	214.10
819.76	213.95
820.07	213.76
820.39	213.48
820.71	213.69
821.03	213.83
821.34	213.52
821.66	213.81
821.98	214.12
822.30	214.17
822.61	215.31
822.93	215.31
823.25	215.19
823.57	215.14
823.88	215.36
824.20	215.33
824.52	216.02
824.83	215.79
825.15	215.26
825.47	215.10
825.79	215.00
826.10	215.21
826.42	215.36
826.74	215.50
827.05	215.71
827.37	215.57
827.69	215.50
828.00	215.74
828.32	215.64
828.64	215.38
828.95	216.48
829.27	216.02
829.58	215.86
829.90	216.17
830.22	216.05
830.53	215.52
830.85	215.45
831.17	214.95
831.48	215.00
831.80	215.38
832.11	215.00
832.43	214.71
832.75	214.48
833.06	215.48
833.38	214.95
833.69	214.93
834.01	215.10
834.32	214.93
834.64	214.67
834.96	214.79
835.27	214.67
835.59	213.90
835.90	213.45
836.22	213.67
836.53	213.48
836.85	213.38
837.16	215.64
837.48	215.67
837.79	216.31
838.11	216.45
838.42	216.45
838.74	216.74
839.05	216.45
839.37	216.19
839.68	214.98
840.00	214.83
840.31	215.00
840.63	214.62
840.94	214.52
841.26	214.36
841.57	214.10
841.88	214.29
842.20	214.14
842.51	213.86
842.83	213.93
843.14	215.79
843.46	215.86
843.77	214.83
844.08	214.69
844.40	213.93
844.71	213.93
845.03	213.71
845.34	213.90
845.65	214.00
845.97	214.38
846.28	214.60
846.60	214.60
846.91	214.48
847.22	214.71
847.54	215.31
847.85	215.69
848.16	215.36
848.48	215.02
848.79	215.86
849.10	216.36
849.42	216.31
849.73	214.31
850.04	214.60
850.36	213.86
850.67	214.55
850.98	214.74
851.30	214.74
851.61	214.62
851.92	214.12
852.23	214.88
852.55	214.79
852.86	214.76
853.17	215.24
853.49	215.52
853.80	215.64
854.11	215.69
854.42	215.79
854.74	215.55
855.05	215.52
855.36	214.33
855.67	214.00
855.99	213.86
856.30	216.40
856.61	215.90
856.92	215.81
857.23	215.48
857.55	215.14
857.86	215.02
858.17	215.60
858.48	215.62
858.79	214.90
859.11	215.19
859.42	215.12
859.73	214.90
860.04	214.60
860.35	214.19
860.66	213.64
860.98	213.43
861.29	213.76
861.60	213.79
861.91	214.50
862.22	214.12
862.53	213.86
862.84	211.17
863.16	211.79
863.47	211.48
863.78	211.36
864.09	211.69
864.40	211.74
864.71	211.71
865.02	211.79
865.33	211.62
865.64	211.26
865.95	211.12
866.27	212.43
866.58	212.33
866.89	212.52
867.20	212.38
867.51	212.00
867.82	212.31
868.13	213.10
868.44	212.48
868.75	212.98
869.06	213.26
869.37	213.64
869.68	212.86
869.99	213.36
870.30	213.43
870.61	213.43
870.92	213.24
871.23	212.98
871.54	213.21
871.85	214.00
872.16	214.31
872.47	214.24
872.78	212.76
873.09	213.02
873.40	213.02
873.71	213.24
874.02	213.40
874.33	213.17
874.64	212.76
874.95	213.19
875.26	212.95
875.56	212.69
875.87	212.57
876.18	212.74
876.49	214.64
876.80	214.71
877.11	214.43
877.42	214.19
877.73	214.21
878.04	214.00
878.35	213.90
878.66	213.81
878.96	213.55
879.27	213.79
879.58	213.55
879.89	213.33
880.20	214.00
880.51	214.12
880.82	214.05
881.12	214.00
881.43	213.36
881.74	213.17
882.05	213.10
882.36	213.12
882.67	213.29
882.97	210.95
883.28	210.60
883.59	210.67
883.90	211.31
884.21	211.50
884.51	211.33
884.82	210.95
885.13	210.88
885.44	211.26
885.74	211.00
886.05	210.86
886.36	210.74
886.67	209.93
886.98	210.90
887.28	211.19
887.59	210.74
887.90	211.05
888.20	210.76
888.51	211.07
888.82	211.02
889.13	211.21
889.43	213.05
889.74	212.81
890.05	212.62
890.35	212.36
890.66	212.24
890.97	212.12
891.28	211.83
891.58	211.83
891.89	211.76
892.20	211.45
892.50	211.48
892.81	211.19
893.12	211.19
893.42	210.24
893.73	210.07
894.04	210.31
894.34	210.24
894.65	210.38
894.95	210.14
895.26	210.14
895.57	210.83
895.87	208.79
896.18	209.14
896.48	209.52
896.79	209.24
897.10	209.38
897.40	209.55
897.71	209.79
898.01	209.64
898.32	209.86
898.63	210.14
898.93	210.10
899.24	210.55
899.54	210.50
899.85	210.45
900.15	210.45
900.46	210.48
900.76	210.79
901.07	210.74
901.38	211.07
901.68	211.40
901.99	210.40
902.29	210.83
902.60	210.86
902.90	210.60
903.21	210.79
903.51	210.69
903.82	211.05
904.12	211.29
904.43	211.67
904.73	211.52
905.03	211.64
905.34	213.62
905.64	213.52
905.95	213.60
906.25	213.76
906.56	213.76
906.86	213.90
907.17	213.90
907.47	214.05
907.77	213.79
908.08	213.40
908.38	213.48
908.69	213.60
908.99	213.81
909.30	213.88
909.60	213.81
909.90	213.95
910.21	213.19
910.51	212.81
910.81	212.43
911.12	212.62
911.42	212.60
911.73	210.57
912.03	210.69
912.33	211.02
912.64	210.86
912.94	210.55
913.24	210.14
913.55	209.86
913.85	209.90
914.15	210.43
914.46	210.52
914.76	210.57
915.06	210.29
915.37	210.07
915.67	209.93
915.97	209.95
916.27	209.43
916.58	209.60
916.88	209.55
917.18	209.64
917.49	211.07
917.79	211.19
918.09	211.57
918.39	212.12
918.70	212.07
919.00	211.98
919.30	212.98
919.60	212.79
919.91	212.60
920.21	212.74
920.51	212.02
920.81	212.10
921.12	212.33
921.42	212.31
921.72	212.36
922.02	212.55
922.32	213.12
922.63	213.43
922.93	214.62
923.23	214.88
923.53	214.69
923.83	213.14
924.13	213.17
924.44	213.10
924.74	213.33
925.04	213.57
925.34	213.69
925.64	212.79
925.94	212.98
926.24	214.29
926.55	213.88
926.85	214.24
927.15	214.17
927.45	213.90
927.75	213.98
928.05	214.24
928.35	214.10
928.65	214.12
928.95	214.26
929.26	213.33
929.56	213.76
929.86	214.12
930.16	213.90
930.46	213.69
930.76	213.76
931.06	212.71
931.36	212.26
931.66	212.55
931.96	212.95
932.26	212.98
932.56	212.21
932.86	212.62
933.16	212.79
933.46	212.67
933.76	212.67
934.06	213.12
934.36	213.83
934.66	213.86
934.96	213.67
935.26	213.52
935.56	213.86
935.86	213.29
936.16	213.00
936.46	213.10
936.76	213.05
937.06	212.79
937.36	213.00
937.66	213.10
937.96	212.76
938.26	212.24
938.56	212.21
938.86	212.02
939.16	212.38
939.46	212.29
939.76	212.43
940.06	212.36
940.35	211.88
940.65	210.48
940.95	210.57
941.25	210.17
941.55	209.83
941.85	209.69
942.15	210.12
942.45	210.48
942.75	210.40
943.04	210.74
943.34	211.05
943.64	210.83
943.94	210.60
944.24	210.69
944.54	210.83
944.84	210.71
945.13	210.43
945.43	210.00
945.73	210.19
946.03	210.21
946.33	210.10
946.62	209.83
946.92	209.81
947.22	210.14
947.52	210.07
947.82	210.57
948.11	210.36
948.41	209.64
948.71	209.21
949.01	209.19
949.31	208.79
949.60	208.67
949.90	209.10
950.20	208.90
950.50	208.98
950.79	208.86
951.09	209.21
951.39	209.21
951.69	208.95
951.98	209.14
952.28	208.98
952.58	208.95
952.87	209.40
953.17	209.86
953.47	209.69
953.76	209.76
954.06	209.40
954.36	209.19
954.66	209.31
954.95	209.95
955.25	210.21
955.55	210.45
955.84	210.19
956.14	210.40
956.44	210.67
956.73	210.19
957.03	210.36
957.32	210.29
957.62	210.26
957.92	210.55
958.21	210.33
958.51	212.81
958.81	213.12
959.10	213.17
959.40	213.57
959.69	213.48
959.99	213.79
960.29	214.00
960.58	214.02
960.88	214.76
961.17	214.36
961.47	214.60
961.76	214.48
962.06	214.79
962.36	214.55
962.65	214.76
962.95	215.10
963.24	214.93
963.54	214.90
963.83	215.05
964.13	215.07
964.42	214.62
964.72	212.88
965.01	212.83
965.31	212.60
965.60	212.12
965.90	213.36
966.19	212.74
966.49	212.76
966.78	212.74
967.08	212.69
967.37	212.86
967.67	212.45
967.96	212.86
968.26	213.00
968.55	213.26
968.85	212.95
969.14	212.86
969.43	212.93
969.73	212.83
970.02	212.74
970.32	212.64
970.61	212.81
970.91	212.24
971.20	212.05
971.49	211.98
971.79	212.19
972.08	210.74
972.38	211.05
972.67	210.83
972.96	211.21
973.26	210.60
973.55	211.19
973.85	211.19
974.14	210.83
974.43	210.79
974.73	210.40
975.02	210.31
975.31	210.40
975.61	210.31
975.90	210.19
976.19	210.10
976.49	210.57
976.78	210.48
977.07	210.36
977.37	210.38
977.66	210.62
977.95	210.26
978.24	210.50
978.54	211.12
978.83	210.93
979.12	210.62
979.42	210.95
979.71	210.40
980.00	210.26
980.29	210.50
980.59	210.21
980.88	210.86
981.17	210.95
981.46	210.81
981.76	210.79
982.05	211.38
982.34	211.55
982.63	211.36
982.93	211.50
983.22	212.14
983.51	212.21
983.80	212.64
984.09	212.83
984.39	212.76
984.68	212.29
984.97	212.64
985.26	212.52
985.55	212.48
985.85	212.19
986.14	212.50
986.43	212.74
986.72	212.55
987.01	211.76
987.30	211.93
987.59	211.88
987.89	212.05
988.18	211.31
988.47	211.24
988.76	210.93
989.05	210.71
989.34	210.26
989.63	210.83
989.92	210.33
990.22	210.33
990.51	210.26
990.80	210.48
991.09	210.55
991.38	210.71
991.67	210.60
991.96	210.52
992.25	210.57
992.54	209.90
992.83	210.12
993.12	210.14
993.41	210.14
993.70	211.17
993.99	211.48
994.28	211.86
994.58	212.21
994.87	212.05
995.16	211.98
995.45	211.76
995.74	210.93
996.03	211.17
996.32	211.43
996.61	211.86
996.90	211.55
997.19	211.45
997.48	211.55
997.77	211.52
998.06	211.50
998.34	211.19
998.63	211.38
998.92	211.64
999.21	211.98
999.50	212.14
999.79	211.19
1000.08	211.21
1000.37	211.14
1000.66	210.67
1000.95	211.26
1001.24	211.52
1001.53	211.90
1001.82	212.17
1002.11	211.81
1002.40	212.10
1002.68	212.40
1002.97	213.67
1003.26	213.43
1003.55	213.38
1003.84	213.40
1004.13	214.29
1004.42	214.31
1004.71	214.40
1004.99	213.79
1005.28	214.21
1005.57	214.05
1005.86	213.88
1006.15	213.62
1006.44	213.45
1006.72	213.79
1007.01	213.40
1007.30	213.52
1007.59	213.31
1007.88	212.93
1008.17	212.79
1008.45	212.24
1008.74	211.38
1009.03	210.50
1009.32	210.43
1009.60	210.26
1009.89	210.12
1010.18	209.14
1010.47	209.14
1010.76	208.88
1011.04	209.05
1011.33	209.10
1011.62	209.12
1011.91	209.40
1012.19	209.40
1012.48	209.60
1012.77	209.43
1013.05	210.26
1013.34	209.98
1013.63	209.67
1013.92	209.86
1014.20	209.83
1014.49	209.90
1014.78	210.21
1015.06	209.88
1015.35	209.83
1015.64	210.05
1015.92	210.26
1016.21	210.57
1016.50	210.57
1016.78	211.05
1017.07	211.10
1017.36	210.52
1017.64	210.40
1017.93	210.55
1018.22	210.60
1018.50	210.57
1018.79	210.60
1019.08	209.81
1019.36	209.83
1019.65	209.93
1019.93	210.64
1020.22	211.05
1020.51	212.00
1020.79	211.81
1021.08	210.50
1021.36	209.50
1021.65	209.50
1021.94	210.50
1022.22	208.00
1022.51	207.00
1022.79	221.00
1023.08	214.50
1023.36	233.50
1023.65	207.50
>>>>>End Processed Spectral Data<<<<<
