SpectraSuite Data File
++++++++++++++++++++++++++++++++++++
Date: Tue Apr 02 18:39:40 EDT 2013
User: group
Dark Spectrum Present: No
Reference Spectrum Present: No
Number of Sampled Component Spectra: 1
Spectrometers: USB2E7196
Integration Time (usec): 580000 (USB2E7196)
Spectra Averaged: 2 (USB2E7196)
Boxcar Smoothing: 10 (USB2E7196)
Correct for Electrical Dark: No (USB2E7196)
Strobe/Lamp Enabled: No (USB2E7196)
Correct for Detector Non-linearity: No (USB2E7196)
Correct for Stray Light: No (USB2E7196)
Number of Pixels in Processed Spectrum: 2048
>>>>>Begin Processed Spectral Data<<<<<
339.09	0.00
339.48	196.00
339.86	194.50
340.24	198.00
340.63	198.50
341.01	235.00
341.39	203.50
341.78	205.50
342.16	211.50
342.54	206.50
342.93	199.31
343.31	209.31
343.69	210.05
344.07	210.71
344.46	211.52
344.84	212.26
345.22	210.90
345.60	211.40
345.99	211.64
346.37	211.79
346.75	212.05
347.13	211.90
347.52	211.93
347.90	212.50
348.28	212.76
348.66	213.26
349.05	212.93
349.43	213.05
349.81	213.26
350.19	213.14
350.57	212.79
350.96	212.83
351.34	212.98
351.72	212.95
352.10	213.07
352.48	212.81
352.87	212.74
353.25	212.93
353.63	212.74
354.01	212.74
354.39	212.62
354.77	212.62
355.15	213.31
355.54	213.14
355.92	212.79
356.30	212.79
356.68	213.79
357.06	213.83
357.44	213.57
357.82	213.57
358.20	214.57
358.58	214.57
358.97	214.60
359.35	215.05
359.73	215.31
360.11	215.17
360.49	215.52
360.87	215.26
361.25	215.43
361.63	216.05
362.01	216.12
362.39	216.10
362.77	216.17
363.15	215.95
363.53	215.86
363.91	216.05
364.29	216.00
364.67	214.21
365.05	214.36
365.43	214.55
365.81	214.74
366.19	214.62
366.57	215.38
366.95	215.48
367.33	214.90
367.71	214.81
368.09	215.19
368.47	214.95
368.85	215.00
369.23	215.33
369.61	214.60
369.99	215.31
370.37	215.43
370.75	216.29
371.13	215.79
371.51	215.55
371.89	215.62
372.27	215.57
372.65	215.98
373.03	215.74
373.41	215.55
373.78	215.33
374.16	214.50
374.54	213.69
374.92	213.40
375.30	213.52
375.68	213.36
376.06	213.62
376.44	213.36
376.82	213.45
377.19	213.31
377.57	213.17
377.95	212.31
378.33	212.19
378.71	211.00
379.09	211.57
379.47	211.95
379.84	211.67
380.22	211.45
380.60	210.86
380.98	210.83
381.36	210.88
381.73	210.71
382.11	211.07
382.49	211.43
382.87	211.12
383.25	211.02
383.62	213.24
384.00	212.67
384.38	212.83
384.76	213.45
385.13	214.19
385.51	214.33
385.89	214.31
386.27	214.52
386.64	215.05
387.02	214.67
387.40	214.38
387.78	214.50
388.15	214.93
388.53	214.83
388.91	215.10
389.29	215.05
389.66	215.43
390.04	214.98
390.42	215.26
390.79	215.62
391.17	215.76
391.55	213.62
391.92	213.83
392.30	214.12
392.68	213.64
393.05	213.52
393.43	213.57
393.81	213.60
394.18	213.14
394.56	213.05
394.94	213.55
395.31	213.69
395.69	214.45
396.06	214.57
396.44	214.81
396.82	214.62
397.19	215.71
397.57	215.48
397.95	216.24
398.32	215.76
398.70	216.07
399.07	216.52
399.45	216.43
399.82	216.24
400.20	215.93
400.58	215.81
400.95	215.21
401.33	215.76
401.70	217.38
402.08	217.76
402.45	217.83
402.83	218.40
403.20	218.57
403.58	218.67
403.95	219.02
404.33	219.64
404.71	219.79
405.08	221.00
405.46	221.36
405.83	221.64
406.21	221.90
406.58	222.19
406.96	222.36
407.33	223.12
407.70	223.98
408.08	226.45
408.45	227.50
408.83	228.74
409.20	229.31
409.58	228.83
409.95	230.05
410.33	231.02
410.70	231.24
411.08	232.55
411.45	233.29
411.82	234.14
412.20	235.98
412.57	238.52
412.95	238.17
413.32	240.10
413.69	241.69
414.07	243.64
414.44	245.50
414.82	247.86
415.19	250.55
415.56	252.90
415.94	254.26
416.31	257.55
416.68	260.36
417.06	264.14
417.43	268.17
417.81	271.95
418.18	276.07
418.55	280.31
418.93	284.52
419.30	289.24
419.67	294.43
420.04	299.14
420.42	304.00
420.79	311.69
421.16	317.83
421.54	325.36
421.91	331.90
422.28	338.83
422.66	345.90
423.03	354.17
423.40	361.29
423.77	368.81
424.15	376.31
424.52	384.62
424.89	393.71
425.26	401.76
425.64	410.05
426.01	419.17
426.38	428.50
426.75	439.17
427.13	449.14
427.50	459.36
427.87	470.26
428.24	481.31
428.61	490.86
428.99	502.76
429.36	513.86
429.73	526.88
430.10	539.17
430.47	552.02
430.85	564.21
431.22	579.10
431.59	595.64
431.96	609.74
432.33	625.52
432.70	640.64
433.08	658.88
433.45	675.19
433.82	691.90
434.19	710.98
434.56	729.36
434.93	746.81
435.30	764.55
435.68	783.86
436.05	802.52
436.42	820.90
436.79	838.95
437.16	858.45
437.53	877.64
437.90	897.14
438.27	917.12
438.64	936.55
439.01	954.95
439.38	970.00
439.75	986.31
440.13	1004.33
440.50	1021.38
440.87	1035.79
441.24	1050.86
441.61	1066.95
441.98	1078.38
442.35	1091.64
442.72	1105.33
443.09	1119.76
443.46	1127.71
443.83	1133.57
444.20	1138.95
444.57	1145.29
444.94	1148.05
445.31	1152.14
445.68	1158.98
446.05	1160.31
446.42	1158.62
446.79	1157.05
447.16	1154.67
447.53	1153.45
447.90	1146.29
448.27	1139.60
448.64	1129.52
449.01	1122.40
449.37	1109.83
449.74	1098.38
450.11	1085.33
450.48	1069.64
450.85	1051.98
451.22	1038.36
451.59	1025.45
451.96	1013.21
452.33	995.98
452.70	980.90
453.07	961.79
453.43	940.10
453.80	921.45
454.17	904.86
454.54	888.02
454.91	870.36
455.28	852.62
455.65	836.62
456.02	823.76
456.38	809.48
456.75	792.67
457.12	778.24
457.49	763.69
457.86	748.19
458.23	736.93
458.59	724.10
458.96	711.14
459.33	699.14
459.70	686.95
460.07	677.74
460.43	666.88
460.80	657.60
461.17	649.05
461.54	640.07
461.91	630.81
462.27	621.52
462.64	614.40
463.01	606.07
463.38	598.93
463.74	587.00
464.11	579.98
464.48	573.45
464.85	566.62
465.21	561.67
465.58	556.40
465.95	549.36
466.32	544.14
466.68	538.29
467.05	532.60
467.42	527.29
467.78	521.64
468.15	516.24
468.52	511.83
468.88	505.93
469.25	500.69
469.62	497.00
469.98	492.48
470.35	488.31
470.72	484.60
471.08	479.26
471.45	476.14
471.82	473.10
472.18	469.33
472.55	467.00
472.92	463.52
473.28	460.40
473.65	457.38
474.02	454.95
474.38	452.79
474.75	451.12
475.11	448.62
475.48	446.60
475.85	444.93
476.21	442.90
476.58	441.64
476.94	440.57
477.31	439.17
477.67	438.05
478.04	436.74
478.41	435.98
478.77	437.48
479.14	436.26
479.50	435.83
479.87	436.14
480.23	435.48
480.60	435.38
480.96	435.19
481.33	436.02
481.69	435.88
482.06	436.26
482.42	436.43
482.79	436.67
483.15	437.12
483.52	438.21
483.88	439.05
484.25	439.45
484.61	440.24
484.98	440.88
485.34	442.74
485.71	444.48
486.07	445.62
486.44	445.55
486.80	447.00
487.17	448.38
487.53	450.33
487.90	452.81
488.26	455.67
488.62	458.52
488.99	460.60
489.35	463.57
489.72	466.62
490.08	469.29
490.44	472.67
490.81	476.45
491.17	479.48
491.54	482.86
491.90	486.90
492.26	490.60
492.63	495.12
492.99	498.95
493.36	503.38
493.72	508.64
494.08	513.12
494.45	518.52
494.81	523.67
495.17	529.00
495.54	534.55
495.90	539.52
496.26	545.19
496.63	551.12
496.99	556.60
497.35	562.76
497.72	569.74
498.08	576.19
498.44	582.60
498.80	589.45
499.17	596.95
499.53	604.00
499.89	612.17
500.26	619.40
500.62	626.76
500.98	634.48
501.34	642.24
501.71	650.79
502.07	659.43
502.43	668.02
502.79	675.67
503.16	683.64
503.52	691.86
503.88	699.38
504.24	708.62
504.60	717.43
504.97	726.24
505.33	734.38
505.69	744.26
506.05	753.10
506.41	762.40
506.78	771.14
507.14	780.14
507.50	788.83
507.86	798.07
508.22	806.95
508.59	815.93
508.95	825.33
509.31	834.64
509.67	843.24
510.03	851.74
510.39	861.10
510.75	869.88
511.12	878.64
511.48	887.98
511.84	895.95
512.20	905.29
512.56	913.31
512.92	922.69
513.28	930.14
513.64	939.24
514.00	947.62
514.37	956.05
514.73	965.07
515.09	973.98
515.45	981.88
515.81	990.33
516.17	998.10
516.53	1005.55
516.89	1012.76
517.25	1021.00
517.61	1028.98
517.97	1036.43
518.33	1044.31
518.69	1052.60
519.05	1061.10
519.41	1069.29
519.77	1077.33
520.13	1085.07
520.49	1091.26
520.85	1099.55
521.21	1107.05
521.57	1114.14
521.93	1120.93
522.29	1127.64
522.65	1133.71
523.01	1141.57
523.37	1148.74
523.73	1156.48
524.09	1162.33
524.45	1169.31
524.81	1175.50
525.17	1182.64
525.53	1188.52
525.89	1194.40
526.25	1200.76
526.61	1206.12
526.97	1211.86
527.33	1217.40
527.68	1224.60
528.04	1230.83
528.40	1236.19
528.76	1241.62
529.12	1248.12
529.48	1254.62
529.84	1260.38
530.20	1267.07
530.56	1272.45
530.91	1278.12
531.27	1283.19
531.63	1289.81
531.99	1294.79
532.35	1299.40
532.71	1303.55
533.07	1310.76
533.42	1319.26
533.78	1324.38
534.14	1330.60
534.50	1335.79
534.86	1341.79
535.21	1346.67
535.57	1353.64
535.93	1359.14
536.29	1365.19
536.65	1370.50
537.00	1374.60
537.36	1379.81
537.72	1383.98
538.08	1389.02
538.44	1393.67
538.79	1398.86
539.15	1403.31
539.51	1408.21
539.87	1414.02
540.22	1419.33
540.58	1423.21
540.94	1425.14
541.29	1430.02
541.65	1433.24
542.01	1437.76
542.37	1441.36
542.72	1443.83
543.08	1446.62
543.44	1450.48
543.79	1453.12
544.15	1456.67
544.51	1462.52
544.87	1466.81
545.22	1471.57
545.58	1474.86
545.94	1478.95
546.29	1482.45
546.65	1486.79
547.01	1491.10
547.36	1494.10
547.72	1497.57
548.07	1501.48
548.43	1505.21
548.79	1507.88
549.14	1511.76
549.50	1516.07
549.86	1519.36
550.21	1523.98
550.57	1527.98
550.92	1530.79
551.28	1534.98
551.64	1538.69
551.99	1541.31
552.35	1544.31
552.70	1547.24
553.06	1552.05
553.41	1555.69
553.77	1561.05
554.13	1565.83
554.48	1569.81
554.84	1575.64
555.19	1580.33
555.55	1585.48
555.90	1590.36
556.26	1595.05
556.61	1599.17
556.97	1602.52
557.32	1606.93
557.68	1611.71
558.03	1616.43
558.39	1621.05
558.74	1624.71
559.10	1628.48
559.45	1633.02
559.81	1637.69
560.16	1641.64
560.52	1644.74
560.87	1649.50
561.23	1652.38
561.58	1656.86
561.94	1660.67
562.29	1663.74
562.64	1668.36
563.00	1671.31
563.35	1674.60
563.71	1679.86
564.06	1684.33
564.42	1688.90
564.77	1694.31
565.12	1699.50
565.48	1706.07
565.83	1711.67
566.19	1717.31
566.54	1722.93
566.89	1727.29
567.25	1732.98
567.60	1740.05
567.96	1746.83
568.31	1752.81
568.66	1758.29
569.02	1761.02
569.37	1765.26
569.72	1770.14
570.08	1773.74
570.43	1777.69
570.78	1781.64
571.14	1785.19
571.49	1789.24
571.84	1793.00
572.20	1794.43
572.55	1796.83
572.90	1797.10
573.26	1798.98
573.61	1801.19
573.96	1803.55
574.31	1805.88
574.67	1807.29
575.02	1807.64
575.37	1808.24
575.72	1808.50
576.08	1809.90
576.43	1811.57
576.78	1813.00
577.13	1813.52
577.49	1815.07
577.84	1816.60
578.19	1818.19
578.54	1818.95
578.90	1820.57
579.25	1821.24
579.60	1823.00
579.95	1823.12
580.30	1824.02
580.66	1826.07
581.01	1826.86
581.36	1827.50
581.71	1828.81
582.06	1830.57
582.42	1831.71
582.77	1831.29
583.12	1831.74
583.47	1831.07
583.82	1831.36
584.17	1831.52
584.53	1832.57
584.88	1831.64
585.23	1832.12
585.58	1831.45
585.93	1830.43
586.28	1829.07
586.63	1828.76
586.98	1827.98
587.34	1828.40
587.69	1828.12
588.04	1825.93
588.39	1825.31
588.74	1822.93
589.09	1821.02
589.44	1817.29
589.79	1815.36
590.14	1814.50
590.49	1812.00
590.84	1810.93
591.19	1809.45
591.54	1807.98
591.89	1805.45
592.25	1805.90
592.60	1803.21
592.95	1802.67
593.30	1801.86
593.65	1800.45
594.00	1797.17
594.35	1800.57
594.70	1796.76
595.05	1793.74
595.40	1791.21
595.75	1788.31
596.10	1786.93
596.45	1784.69
596.80	1783.07
597.15	1780.74
597.50	1777.52
597.85	1776.24
598.19	1773.36
598.54	1771.26
598.89	1768.45
599.24	1765.86
599.59	1761.93
599.94	1758.17
600.29	1754.60
600.64	1751.17
600.99	1748.36
601.34	1746.83
601.69	1738.50
602.04	1735.76
602.39	1732.67
602.74	1730.64
603.08	1727.86
603.43	1726.02
603.78	1723.55
604.13	1721.38
604.48	1717.67
604.83	1715.17
605.18	1712.05
605.53	1708.74
605.87	1704.52
606.22	1700.57
606.57	1697.36
606.92	1693.76
607.27	1690.95
607.62	1687.48
607.96	1684.79
608.31	1681.38
608.66	1677.57
609.01	1673.88
609.36	1671.10
609.70	1666.74
610.05	1661.38
610.40	1657.24
610.75	1650.86
611.10	1645.81
611.44	1640.33
611.79	1634.95
612.14	1629.98
612.49	1624.36
612.83	1618.98
613.18	1614.00
613.53	1609.74
613.88	1603.40
614.22	1598.02
614.57	1592.36
614.92	1586.48
615.27	1580.19
615.61	1573.33
615.96	1566.93
616.31	1561.36
616.65	1555.76
617.00	1551.43
617.35	1546.48
617.70	1540.36
618.04	1535.14
618.39	1528.33
618.74	1522.83
619.08	1517.81
619.43	1512.76
619.78	1506.93
620.12	1501.67
620.47	1496.29
620.82	1489.62
621.16	1483.60
621.51	1478.33
621.85	1472.26
622.20	1466.24
622.55	1459.62
622.89	1453.79
623.24	1448.40
623.59	1442.29
623.93	1435.81
624.28	1429.79
624.62	1426.79
624.97	1422.95
625.32	1417.19
625.66	1412.74
626.01	1407.00
626.35	1400.93
626.70	1393.81
627.04	1388.93
627.39	1381.67
627.73	1376.29
628.08	1371.17
628.43	1365.83
628.77	1359.21
629.12	1353.69
629.46	1348.31
629.81	1343.24
630.15	1337.79
630.50	1331.43
630.84	1325.24
631.19	1318.52
631.53	1312.74
631.88	1303.19
632.22	1294.95
632.57	1288.81
632.91	1281.24
633.26	1274.14
633.60	1268.45
633.95	1262.38
634.29	1255.17
634.64	1249.57
634.98	1242.55
635.32	1236.83
635.67	1230.90
636.01	1225.00
636.36	1218.55
636.70	1213.17
637.05	1207.21
637.39	1200.69
637.73	1195.07
638.08	1188.52
638.42	1182.86
638.77	1176.71
639.11	1171.12
639.45	1164.74
639.80	1158.31
640.14	1152.90
640.49	1146.83
640.83	1140.40
641.17	1134.57
641.52	1128.83
641.86	1123.88
642.20	1118.86
642.55	1111.88
642.89	1105.69
643.23	1099.07
643.58	1093.12
643.92	1085.33
644.26	1077.90
644.61	1071.93
644.95	1064.95
645.29	1059.00
645.64	1053.29
645.98	1046.31
646.32	1039.83
646.66	1033.05
647.01	1026.38
647.35	1020.38
647.69	1013.93
648.04	1008.24
648.38	1002.19
648.72	995.19
649.06	987.76
649.41	980.57
649.75	973.60
650.09	967.64
650.43	961.43
650.78	955.14
651.12	948.81
651.46	942.43
651.80	935.81
652.14	929.98
652.49	924.24
652.83	918.00
653.17	911.76
653.51	905.50
653.85	899.90
654.20	893.93
654.54	886.93
654.88	880.79
655.22	874.64
655.56	868.40
655.90	862.60
656.25	856.33
656.59	850.38
656.93	845.24
657.27	839.71
657.61	833.43
657.95	828.10
658.29	822.50
658.64	817.60
658.98	811.45
659.32	805.48
659.66	799.81
660.00	794.24
660.34	788.14
660.68	782.38
661.02	777.19
661.36	771.31
661.70	766.05
662.05	761.07
662.39	755.88
662.73	751.14
663.07	747.21
663.41	742.55
663.75	736.86
664.09	731.36
664.43	725.02
664.77	720.02
665.11	714.43
665.45	709.52
665.79	704.19
666.13	699.17
666.47	694.31
666.81	689.24
667.15	683.86
667.49	679.98
667.83	676.45
668.17	671.36
668.51	666.81
668.85	662.57
669.19	658.69
669.53	653.19
669.87	647.76
670.21	641.95
670.55	637.12
670.89	633.50
671.23	629.31
671.57	625.57
671.91	621.64
672.25	617.67
672.58	613.69
672.92	609.57
673.26	605.90
673.60	601.83
673.94	597.88
674.28	594.02
674.62	590.02
674.96	585.38
675.30	581.83
675.64	578.36
675.97	574.50
676.31	570.07
676.65	566.50
676.99	563.74
677.33	559.93
677.67	556.64
678.01	552.10
678.34	548.26
678.68	545.02
679.02	541.00
679.36	537.33
679.70	533.48
680.04	529.55
680.37	526.05
680.71	522.17
681.05	518.71
681.39	514.95
681.73	511.12
682.06	507.45
682.40	504.02
682.74	500.93
683.08	498.26
683.42	494.50
683.75	491.17
684.09	486.86
684.43	483.62
684.77	480.36
685.10	477.64
685.44	474.57
685.78	471.02
686.12	467.71
686.45	464.43
686.79	461.31
687.13	458.86
687.46	455.48
687.80	453.10
688.14	449.98
688.48	447.50
688.81	444.95
689.15	442.40
689.49	439.17
689.82	436.40
690.16	432.67
690.50	429.86
690.83	427.26
691.17	424.48
691.51	421.71
691.84	419.12
692.18	416.31
692.52	414.43
692.85	412.26
693.19	410.69
693.52	408.10
693.86	405.48
694.20	402.76
694.53	400.95
694.87	398.48
695.21	395.64
695.54	393.36
695.88	390.43
696.21	387.74
696.55	385.88
696.88	383.71
697.22	381.55
697.56	379.98
697.89	377.45
698.23	375.81
698.56	373.83
698.90	371.86
699.23	369.76
699.57	367.24
699.90	364.83
700.24	362.12
700.58	360.52
700.91	359.07
701.25	358.74
701.58	357.50
701.92	356.02
702.25	354.60
702.59	352.60
702.92	350.88
703.26	349.21
703.59	347.14
703.93	346.90
704.26	345.71
704.60	344.00
704.93	342.71
705.26	340.64
705.60	339.17
705.93	337.24
706.27	336.05
706.60	334.83
706.94	334.24
707.27	332.50
707.61	330.95
707.94	329.14
708.27	326.21
708.61	324.02
708.94	322.50
709.28	321.29
709.61	319.69
709.94	318.21
710.28	317.07
710.61	316.00
710.95	312.76
711.28	312.95
711.61	311.67
711.95	310.64
712.28	309.50
712.61	308.38
712.95	308.48
713.28	308.19
713.61	306.71
713.95	305.07
714.28	304.48
714.61	303.50
714.95	302.26
715.28	300.83
715.61	299.86
715.95	299.00
716.28	297.74
716.61	297.19
716.95	296.33
717.28	295.29
717.61	294.07
717.94	293.31
718.28	290.57
718.61	289.40
718.94	288.00
719.27	287.02
719.61	286.19
719.94	284.62
720.27	282.38
720.60	281.07
720.94	279.86
721.27	278.93
721.60	278.07
721.93	277.38
722.27	277.67
722.60	276.90
722.93	275.60
723.26	274.86
723.59	273.57
723.93	273.14
724.26	272.57
724.59	271.76
724.92	271.17
725.25	271.12
725.59	270.64
725.92	270.29
726.25	269.64
726.58	268.83
726.91	267.98
727.24	267.98
727.57	267.69
727.91	266.86
728.24	266.52
728.57	265.69
728.90	265.45
729.23	263.90
729.56	264.36
729.89	264.05
730.22	263.45
730.55	263.07
730.89	262.43
731.22	261.64
731.55	261.29
731.88	260.98
732.21	260.14
732.54	259.52
732.87	259.12
733.20	258.52
733.53	258.12
733.86	258.00
734.19	257.14
734.52	256.95
734.85	258.21
735.18	257.21
735.51	257.43
735.84	257.10
736.17	257.00
736.50	255.45
736.83	257.43
737.16	257.10
737.49	256.71
737.82	256.14
738.15	256.00
738.48	255.55
738.81	254.81
739.14	254.10
739.47	253.64
739.80	252.98
740.13	253.02
740.46	252.12
740.79	251.14
741.12	250.83
741.45	250.31
741.78	248.26
742.11	248.69
742.44	247.90
742.77	247.79
743.10	247.48
743.43	247.14
743.75	244.45
744.08	246.57
744.41	246.21
744.74	245.69
745.07	244.95
745.40	245.02
745.73	245.52
746.06	245.17
746.39	245.26
746.71	244.95
747.04	244.12
747.37	243.98
747.70	244.07
748.03	243.98
748.36	243.79
748.68	243.79
749.01	242.86
749.34	242.52
749.67	242.12
750.00	242.19
750.33	243.40
750.65	243.38
750.98	240.79
751.31	240.43
751.64	240.57
751.97	241.45
752.29	240.79
752.62	239.74
752.95	239.36
753.28	238.60
753.60	238.33
753.93	238.95
754.26	238.52
754.59	237.76
754.91	237.10
755.24	236.64
755.57	236.21
755.90	235.95
756.22	235.57
756.55	234.90
756.88	234.07
757.20	232.38
757.53	231.57
757.86	231.05
758.19	231.14
758.51	230.71
758.84	229.62
759.17	229.31
759.49	228.98
759.82	229.76
760.15	229.83
760.47	229.31
760.80	228.48
761.13	228.88
761.45	228.71
761.78	228.17
762.11	228.21
762.43	228.00
762.76	227.76
763.08	227.69
763.41	227.67
763.74	227.74
764.06	227.55
764.39	227.36
764.71	227.48
765.04	227.10
765.37	226.88
765.69	226.50
766.02	226.36
766.34	226.14
766.67	225.36
767.00	225.55
767.32	226.79
767.65	227.67
767.97	227.48
768.30	227.55
768.62	227.83
768.95	227.12
769.27	226.88
769.60	227.07
769.92	226.88
770.25	226.48
770.57	226.10
770.90	225.95
771.22	225.76
771.55	225.45
771.87	225.36
772.20	225.10
772.52	226.86
772.85	229.38
773.17	229.52
773.50	229.45
773.82	228.95
774.15	227.81
774.47	226.43
774.80	226.21
775.12	225.98
775.45	225.86
775.77	226.21
776.09	226.21
776.42	226.26
776.74	226.76
777.07	226.81
777.39	226.67
777.72	226.55
778.04	226.88
778.36	226.64
778.69	226.69
779.01	226.88
779.33	224.93
779.66	222.29
779.98	221.90
780.31	221.64
780.63	222.36
780.95	222.43
781.28	222.60
781.60	222.38
781.92	222.45
782.25	222.40
782.57	222.17
782.89	222.05
783.22	221.57
783.54	220.86
783.86	220.69
784.19	220.57
784.51	221.02
784.83	220.57
785.16	220.62
785.48	220.40
785.80	220.24
786.12	220.62
786.45	220.57
786.77	220.90
787.09	220.86
787.42	219.83
787.74	219.93
788.06	219.93
788.38	219.64
788.71	219.24
789.03	219.43
789.35	219.71
789.67	219.40
789.99	219.55
790.32	219.50
790.64	219.62
790.96	221.38
791.28	220.71
791.61	220.64
791.93	220.71
792.25	220.76
792.57	222.21
792.89	221.74
793.21	221.86
793.54	221.38
793.86	221.10
794.18	221.45
794.50	221.05
794.82	221.00
795.14	221.38
795.47	221.95
795.79	221.71
796.11	221.12
796.43	221.14
796.75	220.95
797.07	220.79
797.39	220.93
797.71	219.33
798.04	219.60
798.36	219.76
798.68	219.62
799.00	219.74
799.32	218.67
799.64	218.74
799.96	218.79
800.28	219.26
800.60	219.24
800.92	219.36
801.24	219.36
801.56	219.40
801.89	219.14
802.21	219.26
802.53	218.86
802.85	219.29
803.17	220.24
803.49	220.05
803.81	220.05
804.13	219.60
804.45	219.26
804.77	219.17
805.09	218.90
805.41	218.62
805.73	218.00
806.05	217.52
806.37	217.60
806.69	217.33
807.01	216.88
807.33	216.81
807.65	216.24
807.97	217.10
808.28	217.00
808.60	216.86
808.92	216.36
809.24	217.74
809.56	217.55
809.88	216.76
810.20	216.86
810.52	217.19
810.84	217.07
811.16	216.81
811.48	216.62
811.80	217.52
812.12	217.57
812.43	218.00
812.75	218.10
813.07	217.86
813.39	218.10
813.71	217.98
814.03	218.12
814.35	218.07
814.67	217.38
814.98	217.07
815.30	216.90
815.62	216.50
815.94	215.14
816.26	215.14
816.58	214.71
816.89	214.74
817.21	214.36
817.53	214.48
817.85	214.69
818.17	214.74
818.48	213.90
818.80	214.57
819.12	214.36
819.44	213.95
819.76	213.64
820.07	213.40
820.39	213.50
820.71	213.45
821.03	213.31
821.34	212.95
821.66	213.50
821.98	213.95
822.30	213.93
822.61	215.12
822.93	214.88
823.25	214.98
823.57	214.79
823.88	215.21
824.20	215.26
824.52	215.57
824.83	215.55
825.15	215.14
825.47	214.67
825.79	214.81
826.10	214.74
826.42	214.81
826.74	215.12
827.05	214.90
827.37	214.86
827.69	214.83
828.00	214.81
828.32	214.57
828.64	214.29
828.95	215.36
829.27	214.74
829.58	214.64
829.90	215.10
830.22	215.45
830.53	214.67
830.85	214.36
831.17	213.88
831.48	213.64
831.80	213.93
832.11	213.79
832.43	213.69
832.75	213.67
833.06	215.05
833.38	214.50
833.69	214.40
834.01	214.60
834.32	214.62
834.64	214.52
834.96	214.60
835.27	214.67
835.59	214.14
835.90	213.81
836.22	214.00
836.53	213.50
836.85	213.05
837.16	215.31
837.48	215.60
837.79	216.07
838.11	216.31
838.42	216.29
838.74	216.67
839.05	216.14
839.37	216.17
839.68	214.67
840.00	214.52
840.31	214.86
840.63	214.60
840.94	214.33
841.26	214.31
841.57	214.12
841.88	214.36
842.20	213.90
842.51	213.67
842.83	213.50
843.14	215.38
843.46	215.64
843.77	214.60
844.08	214.31
844.40	213.86
844.71	213.90
845.03	213.81
845.34	213.55
845.65	213.81
845.97	213.90
846.28	214.21
846.60	214.52
846.91	214.02
847.22	214.17
847.54	214.64
847.85	214.88
848.16	214.76
848.48	214.29
848.79	215.36
849.10	215.79
849.42	215.95
849.73	214.12
850.04	214.07
850.36	213.12
850.67	213.55
850.98	213.69
851.30	213.67
851.61	213.67
851.92	213.83
852.23	214.40
852.55	214.24
852.86	214.31
853.17	214.19
853.49	214.90
853.80	215.29
854.11	215.33
854.42	215.45
854.74	215.24
855.05	215.33
855.36	214.21
855.67	214.17
855.99	214.14
856.30	216.45
856.61	216.26
856.92	216.50
857.23	216.52
857.55	216.36
857.86	216.36
858.17	216.67
858.48	216.36
858.79	215.90
859.11	216.26
859.42	216.00
859.73	215.95
860.04	215.71
860.35	215.05
860.66	214.43
860.98	214.19
861.29	214.55
861.60	214.29
861.91	214.83
862.22	214.29
862.53	213.98
862.84	211.69
863.16	212.38
863.47	211.83
863.78	211.57
864.09	211.71
864.40	211.79
864.71	211.57
865.02	211.76
865.33	211.48
865.64	211.07
865.95	211.17
866.27	212.33
866.58	212.21
866.89	212.48
867.20	212.64
867.51	212.29
867.82	212.12
868.13	212.74
868.44	212.14
868.75	212.79
869.06	212.98
869.37	213.12
869.68	212.17
869.99	212.48
870.30	212.64
870.61	212.69
870.92	212.31
871.23	212.36
871.54	212.43
871.85	213.05
872.16	213.48
872.47	213.33
872.78	212.05
873.09	212.36
873.40	212.14
873.71	212.38
874.02	212.48
874.33	212.36
874.64	211.83
874.95	212.24
875.26	211.81
875.56	211.69
875.87	211.43
876.18	211.57
876.49	213.98
876.80	213.74
877.11	213.36
877.42	213.69
877.73	213.69
878.04	213.33
878.35	213.21
878.66	213.14
878.96	213.14
879.27	213.12
879.58	212.79
879.89	212.83
880.20	213.33
880.51	213.40
880.82	213.43
881.12	213.62
881.43	213.14
881.74	212.95
882.05	212.90
882.36	213.17
882.67	213.17
882.97	210.76
883.28	210.79
883.59	211.02
883.90	211.00
884.21	211.24
884.51	211.31
884.82	211.05
885.13	210.98
885.44	210.81
885.74	211.05
886.05	211.14
886.36	211.17
886.67	210.45
886.98	211.55
887.28	211.81
887.59	211.93
887.90	212.12
888.20	212.21
888.51	212.55
888.82	212.29
889.13	212.50
889.43	214.10
889.74	213.79
890.05	213.57
890.35	213.60
890.66	213.38
890.97	213.31
891.28	213.17
891.58	213.24
891.89	213.43
892.20	213.02
892.50	212.76
892.81	212.62
893.12	212.45
893.42	211.69
893.73	211.62
894.04	211.52
894.34	211.52
894.65	211.31
894.95	211.02
895.26	211.10
895.57	212.02
895.87	209.98
896.18	210.45
896.48	210.55
896.79	210.24
897.10	210.50
897.40	210.64
897.71	211.00
898.01	210.74
898.32	210.95
898.63	211.02
898.93	211.05
899.24	211.19
899.54	211.10
899.85	210.86
900.15	210.88
900.46	210.93
900.76	211.21
901.07	211.21
901.38	211.14
901.68	211.12
901.99	210.10
902.29	210.60
902.60	210.45
902.90	210.31
903.21	210.36
903.51	210.14
903.82	210.50
904.12	210.19
904.43	210.48
904.73	210.45
905.03	210.69
905.34	212.95
905.64	212.62
905.95	212.83
906.25	212.93
906.56	212.79
906.86	212.81
907.17	212.71
907.47	213.00
907.77	213.10
908.08	212.88
908.38	212.98
908.69	213.14
908.99	213.50
909.30	213.60
909.60	213.81
909.90	213.88
910.21	213.26
910.51	213.17
910.81	213.26
911.12	213.21
911.42	213.14
911.73	211.00
912.03	211.40
912.33	211.76
912.64	211.55
912.94	211.43
913.24	211.29
913.55	211.02
913.85	210.76
914.15	211.10
914.46	211.71
914.76	211.40
915.06	211.02
915.37	210.57
915.67	210.52
915.97	210.38
916.27	210.02
916.58	210.17
916.88	210.14
917.18	209.86
917.49	211.05
917.79	210.83
918.09	211.00
918.39	211.50
918.70	211.26
919.00	211.24
919.30	212.29
919.60	212.19
919.91	212.14
920.21	212.40
920.51	212.07
920.81	211.71
921.12	212.36
921.42	212.38
921.72	212.79
922.02	212.95
922.32	213.12
922.63	213.19
922.93	214.26
923.23	214.24
923.53	213.83
923.83	212.71
924.13	213.05
924.44	212.98
924.74	213.19
925.04	213.74
925.34	213.90
925.64	212.90
925.94	212.76
926.24	214.02
926.55	213.74
926.85	213.93
927.15	213.74
927.45	213.57
927.75	213.64
928.05	213.60
928.35	213.38
928.65	213.90
928.95	214.19
929.26	213.24
929.56	213.83
929.86	214.48
930.16	214.40
930.46	214.36
930.76	214.62
931.06	213.52
931.36	212.93
931.66	213.14
931.96	213.55
932.26	213.76
932.56	212.64
932.86	212.88
933.16	212.98
933.46	212.90
933.76	212.55
934.06	213.05
934.36	213.71
934.66	213.86
934.96	213.40
935.26	213.50
935.56	213.81
935.86	213.21
936.16	212.98
936.46	213.00
936.76	212.90
937.06	212.57
937.36	212.83
937.66	213.07
937.96	212.93
938.26	212.48
938.56	212.40
938.86	212.69
939.16	212.88
939.46	212.90
939.76	213.17
940.06	213.29
940.35	212.81
940.65	211.52
940.95	211.67
941.25	211.29
941.55	210.88
941.85	210.90
942.15	211.43
942.45	211.93
942.75	211.67
943.04	211.81
943.34	212.10
943.64	212.02
943.94	211.76
944.24	211.88
944.54	211.86
944.84	211.86
945.13	211.52
945.43	211.38
945.73	211.50
946.03	211.24
946.33	211.02
946.62	210.95
946.92	211.07
947.22	211.21
947.52	211.19
947.82	211.69
948.11	211.17
948.41	210.55
948.71	209.81
949.01	209.83
949.31	209.74
949.60	209.45
949.90	209.88
950.20	209.74
950.50	209.48
950.79	209.50
951.09	209.69
951.39	209.60
951.69	209.26
951.98	209.50
952.28	209.67
952.58	209.71
952.87	209.71
953.17	210.26
953.47	210.17
953.76	210.40
954.06	209.88
954.36	209.88
954.66	210.00
954.95	210.64
955.25	211.10
955.55	210.98
955.84	210.88
956.14	210.88
956.44	211.00
956.73	210.81
957.03	210.98
957.32	210.86
957.62	210.86
957.92	211.14
958.21	210.90
958.51	213.38
958.81	213.67
959.10	213.86
959.40	214.21
959.69	214.02
959.99	214.26
960.29	214.45
960.58	214.50
960.88	215.26
961.17	214.90
961.47	214.98
961.76	214.93
962.06	215.12
962.36	214.86
962.65	214.93
962.95	215.00
963.24	214.90
963.54	215.00
963.83	215.10
964.13	215.12
964.42	214.71
964.72	212.90
965.01	212.95
965.31	212.76
965.60	212.10
965.90	213.45
966.19	212.86
966.49	212.95
966.78	212.90
967.08	212.52
967.37	212.74
967.67	212.45
967.96	212.81
968.26	213.02
968.55	213.45
968.85	213.36
969.14	213.33
969.43	213.21
969.73	213.12
970.02	212.76
970.32	212.74
970.61	212.55
970.91	211.88
971.20	211.48
971.49	211.17
971.79	211.48
972.08	209.95
972.38	210.02
972.67	209.90
972.96	210.33
973.26	210.07
973.55	210.43
973.85	210.17
974.14	210.02
974.43	209.93
974.73	209.24
975.02	209.17
975.31	209.33
975.61	209.29
975.90	209.26
976.19	209.57
976.49	209.71
976.78	210.02
977.07	209.93
977.37	209.93
977.66	210.33
977.95	210.12
978.24	210.43
978.54	211.10
978.83	211.05
979.12	210.71
979.42	210.81
979.71	210.60
980.00	210.55
980.29	210.64
980.59	210.10
980.88	211.00
981.17	211.00
981.46	210.98
981.76	211.17
982.05	211.60
982.34	211.40
982.63	211.55
982.93	211.33
983.22	212.07
983.51	212.36
983.80	212.64
984.09	212.95
984.39	212.62
984.68	212.17
984.97	212.07
985.26	211.76
985.55	211.90
985.85	211.48
986.14	211.90
986.43	211.90
986.72	212.10
987.01	211.17
987.30	211.26
987.59	211.07
987.89	210.93
988.18	210.29
988.47	210.24
988.76	209.88
989.05	209.98
989.34	209.50
989.63	210.07
989.92	209.52
990.22	208.98
990.51	209.19
990.80	209.29
991.09	209.40
991.38	209.74
991.67	209.43
991.96	209.38
992.25	209.43
992.54	209.31
992.83	209.29
993.12	209.40
993.41	209.76
993.70	210.64
993.99	210.95
994.28	211.21
994.58	211.38
994.87	211.17
995.16	211.10
995.45	210.93
995.74	209.98
996.03	210.64
996.32	211.00
996.61	211.19
996.90	210.95
997.19	211.02
997.48	210.86
997.77	210.71
998.06	210.90
998.34	210.69
998.63	210.76
998.92	210.76
999.21	211.00
999.50	210.98
999.79	210.33
1000.08	210.33
1000.37	210.50
1000.66	210.64
1000.95	211.24
1001.24	211.31
1001.53	211.71
1001.82	211.67
1002.11	211.05
1002.40	211.31
1002.68	211.76
1002.97	213.50
1003.26	212.98
1003.55	212.86
1003.84	213.21
1004.13	213.67
1004.42	213.43
1004.71	213.17
1004.99	213.14
1005.28	213.76
1005.57	213.62
1005.86	213.31
1006.15	213.24
1006.44	212.95
1006.72	213.10
1007.01	212.86
1007.30	212.81
1007.59	212.71
1007.88	212.69
1008.17	212.86
1008.45	212.02
1008.74	211.26
1009.03	210.38
1009.32	210.74
1009.60	210.69
1009.89	210.33
1010.18	209.86
1010.47	209.81
1010.76	209.86
1011.04	209.95
1011.33	209.76
1011.62	209.74
1011.91	209.95
1012.19	210.02
1012.48	209.95
1012.77	209.98
1013.05	210.76
1013.34	210.83
1013.63	210.69
1013.92	211.17
1014.20	211.00
1014.49	211.40
1014.78	211.67
1015.06	210.79
1015.35	210.74
1015.64	211.12
1015.92	211.55
1016.21	211.52
1016.50	211.60
1016.78	211.83
1017.07	211.76
1017.36	211.38
1017.64	211.02
1017.93	211.21
1018.22	210.83
1018.50	210.76
1018.79	210.52
1019.08	209.62
1019.36	209.79
1019.65	209.52
1019.93	209.79
1020.22	209.95
1020.51	211.10
1020.79	210.62
1021.08	204.50
1021.36	206.00
1021.65	209.00
1021.94	209.50
1022.22	213.50
1022.51	206.50
1022.79	218.00
1023.08	209.50
1023.36	236.00
1023.65	202.00
>>>>>End Processed Spectral Data<<<<<
