SpectraSuite Data File
++++++++++++++++++++++++++++++++++++
Date: Tue Apr 02 18:40:01 EDT 2013
User: group
Dark Spectrum Present: No
Reference Spectrum Present: No
Number of Sampled Component Spectra: 1
Spectrometers: USB2E7196
Integration Time (usec): 580000 (USB2E7196)
Spectra Averaged: 2 (USB2E7196)
Boxcar Smoothing: 10 (USB2E7196)
Correct for Electrical Dark: No (USB2E7196)
Strobe/Lamp Enabled: No (USB2E7196)
Correct for Detector Non-linearity: No (USB2E7196)
Correct for Stray Light: No (USB2E7196)
Number of Pixels in Processed Spectrum: 2048
>>>>>Begin Processed Spectral Data<<<<<
339.09	0.00
339.48	194.50
339.86	197.00
340.24	199.00
340.63	200.00
341.01	234.50
341.39	202.50
341.78	209.50
342.16	212.00
342.54	208.50
342.93	199.45
343.31	209.26
343.69	209.76
344.07	210.17
344.46	210.83
344.84	211.29
345.22	210.00
345.60	210.52
345.99	210.69
346.37	210.55
346.75	210.52
347.13	210.60
347.52	210.62
347.90	211.21
348.28	211.17
348.66	212.00
349.05	211.14
349.43	211.31
349.81	211.38
350.19	211.02
350.57	211.17
350.96	211.07
351.34	211.33
351.72	211.43
352.10	211.52
352.48	211.12
352.87	210.93
353.25	210.90
353.63	210.57
354.01	210.48
354.39	210.60
354.77	210.60
355.15	211.05
355.54	211.12
355.92	210.43
356.30	210.36
356.68	211.10
357.06	211.36
357.44	211.02
357.82	210.79
358.20	212.00
358.58	211.93
358.97	212.17
359.35	212.52
359.73	213.33
360.11	213.24
360.49	213.43
360.87	213.67
361.25	213.95
361.63	214.76
362.01	214.76
362.39	214.55
362.77	214.90
363.15	214.95
363.53	214.69
363.91	214.95
364.29	214.90
364.67	213.24
365.05	213.10
365.43	213.36
365.81	213.81
366.19	213.98
366.57	214.79
366.95	214.45
367.33	213.93
367.71	213.45
368.09	213.81
368.47	213.98
368.85	213.93
369.23	214.31
369.61	213.50
369.99	214.48
370.37	214.83
370.75	215.64
371.13	215.29
371.51	215.07
371.89	215.02
372.27	215.26
372.65	215.52
373.03	215.74
373.41	215.55
373.78	215.50
374.16	214.36
374.54	213.55
374.92	213.64
375.30	213.67
375.68	213.29
376.06	213.57
376.44	213.45
376.82	213.43
377.19	213.29
377.57	213.38
377.95	212.40
378.33	212.31
378.71	210.83
379.09	211.10
379.47	211.36
379.84	211.48
380.22	211.24
380.60	210.98
380.98	210.69
381.36	210.95
381.73	210.60
382.11	211.00
382.49	211.24
382.87	210.98
383.25	211.19
383.62	213.60
384.00	212.98
384.38	213.05
384.76	213.62
385.13	214.67
385.51	214.67
385.89	214.40
386.27	214.33
386.64	214.79
387.02	214.57
387.40	214.40
387.78	214.50
388.15	214.81
388.53	214.76
388.91	215.26
389.29	214.95
389.66	215.45
390.04	215.17
390.42	215.50
390.79	215.71
391.17	215.86
391.55	213.62
391.92	213.86
392.30	214.17
392.68	213.48
393.05	212.93
393.43	213.12
393.81	213.24
394.18	213.12
394.56	213.33
394.94	213.81
395.31	213.81
395.69	214.21
396.06	214.26
396.44	214.40
396.82	214.05
397.19	215.38
397.57	215.02
397.95	215.45
398.32	214.95
398.70	215.19
399.07	215.52
399.45	215.67
399.82	215.67
400.20	215.50
400.58	215.67
400.95	215.00
401.33	215.43
401.70	216.86
402.08	217.14
402.45	217.33
402.83	217.81
403.20	218.19
403.58	218.12
403.95	218.79
404.33	219.24
404.71	219.67
405.08	220.71
405.46	221.05
405.83	221.45
406.21	221.74
406.58	222.17
406.96	222.43
407.33	222.98
407.70	223.71
408.08	225.76
408.45	226.81
408.83	227.88
409.20	228.36
409.58	228.10
409.95	229.21
410.33	229.93
410.70	230.07
411.08	231.26
411.45	232.74
411.82	233.31
412.20	234.83
412.57	237.14
412.95	236.67
413.32	238.64
413.69	240.14
414.07	242.05
414.44	243.90
414.82	245.93
415.19	248.45
415.56	250.93
415.94	252.64
416.31	255.74
416.68	258.76
417.06	262.40
417.43	266.24
417.81	269.86
418.18	274.10
418.55	278.19
418.93	282.52
419.30	286.71
419.67	291.69
420.04	296.29
420.42	301.10
420.79	308.81
421.16	314.69
421.54	322.14
421.91	329.10
422.28	336.07
422.66	343.21
423.03	351.74
423.40	359.14
423.77	366.48
424.15	374.05
424.52	382.31
424.89	391.60
425.26	399.86
425.64	408.17
426.01	416.74
426.38	426.36
426.75	436.10
427.13	446.40
427.50	456.98
427.87	468.17
428.24	478.93
428.61	488.24
428.99	500.64
429.36	512.21
429.73	523.83
430.10	536.17
430.47	549.00
430.85	560.48
431.22	574.21
431.59	590.33
431.96	604.21
432.33	619.86
432.70	634.31
433.08	652.36
433.45	668.67
433.82	685.29
434.19	703.43
434.56	721.31
434.93	738.21
435.30	755.76
435.68	774.60
436.05	793.17
436.42	812.02
436.79	829.00
437.16	847.67
437.53	867.67
437.90	887.14
438.27	906.55
438.64	926.33
439.01	944.45
439.38	959.62
439.75	975.26
440.13	993.24
440.50	1010.05
440.87	1023.52
441.24	1038.29
441.61	1054.60
441.98	1067.00
442.35	1080.45
442.72	1094.60
443.09	1108.55
443.46	1117.02
443.83	1123.02
444.20	1127.79
444.57	1133.95
444.94	1137.17
445.31	1140.14
445.68	1145.31
446.05	1146.38
446.42	1144.90
446.79	1143.90
447.16	1141.88
447.53	1140.88
447.90	1134.05
448.27	1127.17
448.64	1117.57
449.01	1110.45
449.37	1097.79
449.74	1085.17
450.11	1072.69
450.48	1056.10
450.85	1038.79
451.22	1024.64
451.59	1011.29
451.96	998.76
452.33	981.95
452.70	966.19
453.07	948.24
453.43	927.64
453.80	909.69
454.17	891.98
454.54	874.81
454.91	857.10
455.28	839.98
455.65	823.79
456.02	811.00
456.38	797.48
456.75	780.52
457.12	766.26
457.49	752.45
457.86	737.26
458.23	726.71
458.59	714.26
458.96	701.43
459.33	689.74
459.70	678.31
460.07	669.48
460.43	659.48
460.80	649.88
461.17	641.93
461.54	633.36
461.91	625.14
462.27	616.43
462.64	608.69
463.01	600.90
463.38	593.67
463.74	582.60
464.11	575.26
464.48	569.19
464.85	562.74
465.21	558.26
465.58	552.71
465.95	545.57
466.32	540.12
466.68	534.64
467.05	529.40
467.42	523.88
467.78	518.00
468.15	512.24
468.52	508.17
468.88	501.74
469.25	496.29
469.62	492.83
469.98	488.83
470.35	485.05
470.72	480.95
471.08	475.55
471.45	472.38
471.82	469.02
472.18	465.79
472.55	463.00
472.92	458.81
473.28	456.02
473.65	453.40
474.02	450.69
474.38	448.88
474.75	446.50
475.11	444.17
475.48	442.40
475.85	440.67
476.21	438.71
476.58	437.21
476.94	436.31
477.31	434.83
477.67	433.64
478.04	432.45
478.41	431.60
478.77	433.33
479.14	432.12
479.50	431.83
479.87	431.31
480.23	431.00
480.60	430.60
480.96	430.52
481.33	431.00
481.69	430.98
482.06	430.57
482.42	431.17
482.79	431.62
483.15	432.24
483.52	433.55
483.88	434.00
484.25	435.33
484.61	436.29
484.98	437.12
485.34	439.17
485.71	441.00
486.07	442.29
486.44	441.93
486.80	443.83
487.17	445.69
487.53	448.12
487.90	450.10
488.26	453.45
488.62	456.31
488.99	458.48
489.35	461.24
489.72	464.17
490.08	467.38
490.44	470.50
490.81	474.10
491.17	476.81
491.54	480.76
491.90	484.67
492.26	488.45
492.63	492.43
492.99	495.64
493.36	499.86
493.72	504.83
494.08	509.79
494.45	515.24
494.81	520.57
495.17	525.67
495.54	531.38
495.90	535.93
496.26	541.52
496.63	547.33
496.99	553.19
497.35	559.48
497.72	565.83
498.08	572.14
498.44	577.95
498.80	585.45
499.17	591.95
499.53	598.88
499.89	606.29
500.26	613.29
500.62	621.05
500.98	629.00
501.34	636.19
501.71	644.05
502.07	651.19
502.43	658.52
502.79	665.88
503.16	674.12
503.52	683.05
503.88	690.38
504.24	698.69
504.60	706.98
504.97	715.50
505.33	723.90
505.69	732.74
506.05	741.33
506.41	749.71
506.78	758.31
507.14	766.36
507.50	774.98
507.86	783.81
508.22	792.17
508.59	800.62
508.95	810.10
509.31	819.93
509.67	828.83
510.03	837.26
510.39	846.05
510.75	854.45
511.12	862.76
511.48	871.74
511.84	880.29
512.20	888.95
512.56	897.52
512.92	906.12
513.28	914.67
513.64	924.19
514.00	932.36
514.37	940.83
514.73	949.29
515.09	957.71
515.45	965.83
515.81	973.86
516.17	981.50
516.53	988.43
516.89	994.40
517.25	1002.19
517.61	1010.88
517.97	1018.45
518.33	1026.12
518.69	1033.95
519.05	1041.33
519.41	1048.31
519.77	1057.21
520.13	1064.95
520.49	1071.62
520.85	1078.67
521.21	1085.48
521.57	1092.05
521.93	1098.79
522.29	1106.12
522.65	1111.95
523.01	1119.14
523.37	1125.76
523.73	1132.31
524.09	1138.48
524.45	1145.17
524.81	1151.31
525.17	1156.83
525.53	1162.38
525.89	1167.86
526.25	1173.02
526.61	1178.64
526.97	1184.48
527.33	1188.83
527.68	1196.38
528.04	1201.12
528.40	1205.69
528.76	1210.88
529.12	1217.05
529.48	1222.52
529.84	1226.93
530.20	1232.38
530.56	1237.57
530.91	1242.79
531.27	1247.60
531.63	1253.64
531.99	1258.19
532.35	1262.55
532.71	1267.26
533.07	1273.64
533.42	1281.69
533.78	1287.26
534.14	1293.10
534.50	1298.17
534.86	1303.55
535.21	1306.10
535.57	1312.40
535.93	1317.57
536.29	1323.43
536.65	1328.64
537.00	1333.71
537.36	1339.31
537.72	1344.05
538.08	1349.02
538.44	1353.38
538.79	1358.00
539.15	1361.76
539.51	1366.43
539.87	1371.33
540.22	1376.05
540.58	1380.81
540.94	1382.52
541.29	1386.69
541.65	1390.26
542.01	1395.19
542.37	1399.00
542.72	1402.21
543.08	1406.33
543.44	1410.60
543.79	1412.88
544.15	1416.52
544.51	1421.05
544.87	1424.55
545.22	1429.79
545.58	1433.02
545.94	1436.86
546.29	1441.19
546.65	1444.98
547.01	1449.50
547.36	1452.71
547.72	1456.38
548.07	1459.62
548.43	1462.95
548.79	1466.29
549.14	1469.33
549.50	1472.17
549.86	1475.12
550.21	1479.12
550.57	1482.67
550.92	1485.67
551.28	1490.29
551.64	1493.76
551.99	1496.98
552.35	1500.52
552.70	1503.14
553.06	1507.93
553.41	1512.17
553.77	1516.64
554.13	1520.48
554.48	1525.60
554.84	1530.90
555.19	1536.02
555.55	1540.52
555.90	1544.98
556.26	1549.05
556.61	1554.79
556.97	1558.67
557.32	1562.43
557.68	1567.14
558.03	1570.93
558.39	1576.26
558.74	1580.57
559.10	1585.12
559.45	1589.17
559.81	1594.29
560.16	1598.52
560.52	1602.48
560.87	1607.26
561.23	1611.12
561.58	1617.74
561.94	1620.79
562.29	1624.69
562.64	1628.93
563.00	1633.17
563.35	1637.69
563.71	1643.07
564.06	1647.10
564.42	1651.98
564.77	1658.62
565.12	1663.57
565.48	1671.02
565.83	1676.21
566.19	1681.38
566.54	1686.02
566.89	1690.76
567.25	1696.10
567.60	1702.00
567.96	1708.40
568.31	1713.55
568.66	1718.79
569.02	1722.05
569.37	1726.02
569.72	1730.93
570.08	1734.21
570.43	1738.76
570.78	1742.93
571.14	1746.86
571.49	1750.17
571.84	1755.12
572.20	1758.05
572.55	1762.19
572.90	1763.12
573.26	1765.98
573.61	1769.00
573.96	1772.50
574.31	1775.69
574.67	1778.17
575.02	1780.17
575.37	1781.33
575.72	1783.33
576.08	1785.14
576.43	1786.93
576.78	1789.26
577.13	1791.19
577.49	1794.36
577.84	1796.74
578.19	1798.86
578.54	1801.62
578.90	1804.10
579.25	1805.60
579.60	1807.12
579.95	1807.17
580.30	1809.38
580.66	1810.86
581.01	1811.74
581.36	1813.38
581.71	1814.50
582.06	1816.74
582.42	1818.38
582.77	1818.95
583.12	1819.79
583.47	1821.07
583.82	1822.26
584.17	1823.17
584.53	1824.07
584.88	1824.67
585.23	1825.26
585.58	1825.86
585.93	1825.52
586.28	1826.07
586.63	1826.10
586.98	1827.24
587.34	1829.33
587.69	1829.00
588.04	1828.45
588.39	1827.79
588.74	1825.81
589.09	1825.60
589.44	1822.76
589.79	1822.17
590.14	1821.55
590.49	1819.86
590.84	1818.21
591.19	1817.24
591.54	1817.55
591.89	1815.88
592.25	1817.02
592.60	1814.40
592.95	1812.88
593.30	1812.12
593.65	1810.19
594.00	1807.64
594.35	1811.00
594.70	1808.48
595.05	1806.57
595.40	1805.24
595.75	1804.26
596.10	1803.74
596.45	1802.19
596.80	1801.67
597.15	1799.79
597.50	1796.95
597.85	1797.07
598.19	1795.81
598.54	1793.55
598.89	1790.64
599.24	1789.88
599.59	1785.33
599.94	1783.52
600.29	1780.76
600.64	1778.21
600.99	1776.17
601.34	1775.45
601.69	1766.86
602.04	1764.50
602.39	1761.43
602.74	1759.55
603.08	1756.40
603.43	1754.29
603.78	1752.45
604.13	1748.83
604.48	1745.19
604.83	1743.83
605.18	1740.10
605.53	1736.81
605.87	1734.00
606.22	1730.83
606.57	1727.19
606.92	1723.31
607.27	1721.05
607.62	1719.17
607.96	1716.33
608.31	1713.31
608.66	1709.64
609.01	1706.55
609.36	1703.17
609.70	1700.07
610.05	1696.24
610.40	1692.57
610.75	1687.79
611.10	1683.76
611.44	1680.74
611.79	1677.19
612.14	1671.81
612.49	1666.74
612.83	1662.17
613.18	1657.10
613.53	1652.45
613.88	1646.71
614.22	1641.64
614.57	1634.88
614.92	1628.48
615.27	1622.64
615.61	1616.48
615.96	1610.57
616.31	1605.40
616.65	1600.71
617.00	1595.07
617.35	1588.50
617.70	1582.74
618.04	1577.10
618.39	1569.93
618.74	1563.83
619.08	1558.10
619.43	1553.38
619.78	1548.55
620.12	1543.55
620.47	1538.45
620.82	1532.29
621.16	1527.33
621.51	1522.36
621.85	1517.29
622.20	1512.26
622.55	1506.40
622.89	1501.31
623.24	1496.36
623.59	1490.67
623.93	1484.40
624.28	1479.12
624.62	1476.19
624.97	1471.64
625.32	1465.64
625.66	1460.43
626.01	1454.81
626.35	1449.38
626.70	1443.29
627.04	1437.81
627.39	1431.26
627.73	1426.60
628.08	1421.43
628.43	1415.62
628.77	1409.69
629.12	1404.74
629.46	1399.50
629.81	1393.64
630.15	1386.50
630.50	1379.60
630.84	1373.10
631.19	1366.60
631.53	1360.69
631.88	1351.74
632.22	1344.62
632.57	1339.21
632.91	1332.71
633.26	1326.98
633.60	1320.55
633.95	1314.38
634.29	1307.40
634.64	1301.95
634.98	1294.90
635.32	1289.81
635.67	1284.02
636.01	1278.10
636.36	1271.14
636.70	1265.52
637.05	1259.62
637.39	1254.62
637.73	1249.00
638.08	1244.43
638.42	1238.79
638.77	1233.24
639.11	1228.57
639.45	1222.40
639.80	1216.36
640.14	1210.95
640.49	1204.48
640.83	1197.57
641.17	1191.64
641.52	1185.57
641.86	1178.86
642.20	1173.74
642.55	1166.33
642.89	1159.36
643.23	1152.88
643.58	1147.21
643.92	1139.71
644.26	1133.48
644.61	1127.40
644.95	1120.55
645.29	1112.57
645.64	1106.38
645.98	1099.33
646.32	1092.50
646.66	1085.67
647.01	1078.81
647.35	1072.74
647.69	1066.05
648.04	1060.55
648.38	1054.55
648.72	1048.38
649.06	1042.64
649.41	1035.40
649.75	1028.86
650.09	1023.19
650.43	1016.36
650.78	1009.36
651.12	1002.83
651.46	996.38
651.80	989.69
652.14	984.05
652.49	978.90
652.83	971.76
653.17	965.29
653.51	958.14
653.85	952.76
654.20	946.50
654.54	938.88
654.88	932.48
655.22	926.88
655.56	919.64
655.90	913.69
656.25	907.00
656.59	901.24
656.93	895.69
657.27	890.50
657.61	884.67
657.95	879.33
658.29	873.43
658.64	867.43
658.98	861.60
659.32	854.88
659.66	848.69
660.00	843.07
660.34	837.81
660.68	832.33
661.02	826.17
661.36	820.29
661.70	815.05
662.05	809.40
662.39	803.38
662.73	798.52
663.07	793.93
663.41	788.74
663.75	782.60
664.09	776.98
664.43	770.21
664.77	764.69
665.11	759.00
665.45	753.69
665.79	748.88
666.13	743.33
666.47	738.36
666.81	732.93
667.15	727.36
667.49	722.12
667.83	717.86
668.17	713.24
668.51	708.52
668.85	703.90
669.19	700.29
669.53	695.17
669.87	689.69
670.21	683.55
670.55	678.52
670.89	674.79
671.23	670.05
671.57	665.48
671.91	661.38
672.25	656.69
672.58	653.07
672.92	648.00
673.26	643.86
673.60	639.71
673.94	636.24
674.28	632.60
674.62	628.55
674.96	624.07
675.30	619.69
675.64	615.33
675.97	611.14
676.31	606.05
676.65	601.52
676.99	598.86
677.33	594.50
677.67	590.90
678.01	585.76
678.34	581.67
678.68	578.24
679.02	574.29
679.36	569.90
679.70	565.45
680.04	561.05
680.37	557.10
680.71	553.00
681.05	548.55
681.39	544.48
681.73	540.40
682.06	536.10
682.40	532.52
682.74	529.10
683.08	526.31
683.42	522.29
683.75	518.86
684.09	514.40
684.43	511.12
684.77	507.00
685.10	503.62
685.44	500.33
685.78	496.76
686.12	493.26
686.45	490.07
686.79	486.12
687.13	483.62
687.46	480.52
687.80	478.19
688.14	474.93
688.48	471.95
688.81	468.86
689.15	466.64
689.49	463.31
689.82	460.71
690.16	456.81
690.50	454.14
690.83	450.98
691.17	447.81
691.51	444.81
691.84	442.19
692.18	439.83
692.52	436.62
692.85	433.98
693.19	431.98
693.52	429.43
693.86	426.95
694.20	423.83
694.53	421.19
694.87	418.00
695.21	415.07
695.54	412.31
695.88	409.45
696.21	406.29
696.55	404.00
696.88	401.29
697.22	398.81
697.56	396.74
697.89	394.57
698.23	392.67
698.56	390.36
698.90	388.29
699.23	385.71
699.57	383.76
699.90	381.14
700.24	378.43
700.58	376.26
700.91	374.45
701.25	374.19
701.58	372.90
701.92	371.40
702.25	369.31
702.59	367.05
702.92	365.10
703.26	363.38
703.59	361.40
703.93	361.10
704.26	359.45
704.60	357.60
704.93	355.69
705.26	353.55
705.60	352.29
705.93	350.02
706.27	348.71
706.60	347.36
706.94	346.98
707.27	345.14
707.61	343.79
707.94	342.17
708.27	338.86
708.61	336.14
708.94	334.36
709.28	333.12
709.61	331.90
709.94	330.57
710.28	329.19
710.61	327.83
710.95	324.55
711.28	324.79
711.61	323.24
711.95	322.21
712.28	320.45
712.61	318.74
712.95	318.57
713.28	318.07
713.61	316.57
713.95	314.21
714.28	313.26
714.61	311.79
714.95	310.07
715.28	308.74
715.61	307.86
715.95	306.88
716.28	305.57
716.61	304.60
716.95	303.31
717.28	301.83
717.61	300.79
717.94	299.83
718.28	296.88
718.61	295.86
718.94	294.50
719.27	293.52
719.61	292.67
719.94	291.36
720.27	289.14
720.60	287.95
720.94	286.98
721.27	285.71
721.60	285.10
721.93	284.76
722.27	284.83
722.60	284.21
722.93	282.90
723.26	282.26
723.59	281.14
723.93	280.62
724.26	279.95
724.59	278.95
724.92	278.24
725.25	278.10
725.59	277.33
725.92	276.90
726.25	276.36
726.58	275.55
726.91	274.38
727.24	274.05
727.57	273.50
727.91	272.64
728.24	272.40
728.57	271.43
728.90	270.79
729.23	269.24
729.56	269.10
729.89	268.64
730.22	267.98
730.55	267.14
730.89	266.48
731.22	265.95
731.55	265.40
731.88	264.83
732.21	263.90
732.54	263.26
732.87	262.55
733.20	262.29
733.53	262.05
733.86	261.81
734.19	260.86
734.52	260.71
734.85	261.45
735.18	260.55
735.51	260.74
735.84	260.12
736.17	260.36
736.50	259.07
736.83	260.69
737.16	260.12
737.49	260.02
737.82	259.21
738.15	258.81
738.48	258.12
738.81	257.62
739.14	256.98
739.47	256.40
739.80	255.83
740.13	255.40
740.46	254.45
740.79	253.55
741.12	253.24
741.45	252.43
741.78	251.12
742.11	251.33
742.44	250.40
742.77	250.52
743.10	249.48
743.43	248.98
743.75	246.43
744.08	248.76
744.41	248.29
744.74	248.02
745.07	247.50
745.40	247.38
745.73	247.90
746.06	247.64
746.39	247.57
746.71	247.00
747.04	246.31
747.37	245.88
747.70	245.81
748.03	245.74
748.36	245.79
748.68	245.17
749.01	243.93
749.34	243.76
749.67	243.19
750.00	243.21
750.33	244.62
750.65	244.57
750.98	241.57
751.31	241.29
751.64	241.31
751.97	242.02
752.29	241.64
752.62	240.24
752.95	240.00
753.28	239.50
753.60	239.38
753.93	239.60
754.26	239.74
754.59	238.98
754.91	238.24
755.24	237.83
755.57	237.62
755.90	237.69
756.22	237.07
756.55	236.86
756.88	236.12
757.20	234.19
757.53	233.40
757.86	233.21
758.19	233.10
758.51	232.55
758.84	231.12
759.17	230.79
759.49	230.69
759.82	231.24
760.15	231.02
760.47	230.67
760.80	229.88
761.13	229.83
761.45	229.64
761.78	229.79
762.11	229.38
762.43	229.19
762.76	228.83
763.08	229.24
763.41	228.93
763.74	229.02
764.06	229.12
764.39	228.98
764.71	228.40
765.04	227.93
765.37	227.55
765.69	227.55
766.02	227.31
766.34	226.83
766.67	225.95
767.00	226.26
767.32	227.17
767.65	228.29
767.97	228.00
768.30	228.21
768.62	227.90
768.95	227.69
769.27	227.62
769.60	227.62
769.92	226.83
770.25	226.48
770.57	225.93
770.90	225.74
771.22	225.52
771.55	225.83
771.87	225.88
772.20	225.74
772.52	227.43
772.85	229.81
773.17	229.95
773.50	229.69
773.82	229.38
774.15	228.38
774.47	227.17
774.80	227.07
775.12	226.86
775.45	226.79
775.77	226.76
776.09	226.69
776.42	226.69
776.74	227.17
777.07	226.79
777.39	226.83
777.72	226.62
778.04	226.55
778.36	226.17
778.69	226.02
779.01	226.17
779.33	224.19
779.66	221.83
779.98	221.67
780.31	221.74
780.63	222.05
780.95	222.33
781.28	222.14
781.60	221.64
781.92	221.36
782.25	221.19
782.57	221.07
782.89	220.69
783.22	220.64
783.54	220.10
783.86	220.52
784.19	220.36
784.51	220.90
784.83	220.69
785.16	220.55
785.48	220.40
785.80	220.43
786.12	220.69
786.45	220.52
786.77	220.64
787.09	220.50
787.42	219.93
787.74	219.95
788.06	219.98
788.38	220.14
788.71	220.05
789.03	220.02
789.35	220.19
789.67	220.05
789.99	220.12
790.32	219.95
790.64	220.00
790.96	221.76
791.28	220.93
791.61	220.98
791.93	221.21
792.25	221.36
792.57	222.55
792.89	221.86
793.21	222.00
793.54	221.81
793.86	221.62
794.18	221.81
794.50	221.24
794.82	221.05
795.14	221.10
795.47	221.52
795.79	221.50
796.11	220.98
796.43	220.98
796.75	220.83
797.07	220.83
797.39	220.45
797.71	218.83
798.04	218.83
798.36	218.71
798.68	218.62
799.00	218.62
799.32	217.57
799.64	218.14
799.96	217.95
800.28	218.31
800.60	218.17
800.92	217.95
801.24	218.07
801.56	218.21
801.89	217.88
802.21	218.02
802.53	217.60
802.85	218.24
803.17	219.02
803.49	218.67
803.81	218.57
804.13	218.38
804.45	218.05
804.77	218.21
805.09	218.29
805.41	217.79
805.73	217.40
806.05	216.83
806.37	216.55
806.69	216.45
807.01	215.93
807.33	216.24
807.65	215.62
807.97	216.33
808.28	216.02
808.60	216.17
808.92	215.76
809.24	217.36
809.56	216.79
809.88	216.17
810.20	216.10
810.52	216.69
810.84	216.45
811.16	216.40
811.48	216.40
811.80	217.10
812.12	217.21
812.43	217.71
812.75	218.05
813.07	217.83
813.39	217.98
813.71	217.88
814.03	217.62
814.35	217.76
814.67	216.88
814.98	216.86
815.30	216.79
815.62	216.33
815.94	214.86
816.26	214.88
816.58	214.31
816.89	214.64
817.21	213.86
817.53	214.17
817.85	214.31
818.17	214.26
818.48	213.36
818.80	213.93
819.12	213.38
819.44	212.88
819.76	212.74
820.07	212.64
820.39	212.69
820.71	212.93
821.03	212.98
821.34	213.10
821.66	213.55
821.98	213.52
822.30	213.74
822.61	215.02
822.93	215.05
823.25	215.29
823.57	214.93
823.88	215.12
824.20	215.14
824.52	215.52
824.83	215.31
825.15	215.26
825.47	215.21
825.79	215.29
826.10	215.40
826.42	215.38
826.74	215.93
827.05	215.79
827.37	215.93
827.69	215.90
828.00	215.93
828.32	215.57
828.64	215.52
828.95	216.57
829.27	215.90
829.58	215.76
829.90	215.98
830.22	216.36
830.53	216.24
830.85	215.90
831.17	215.31
831.48	215.26
831.80	215.29
832.11	214.86
832.43	214.64
832.75	214.57
833.06	215.64
833.38	214.79
833.69	214.81
834.01	214.64
834.32	214.55
834.64	214.29
834.96	214.43
835.27	214.50
835.59	213.83
835.90	213.17
836.22	213.12
836.53	212.86
836.85	212.52
837.16	214.60
837.48	214.60
837.79	215.12
838.11	215.24
838.42	215.26
838.74	215.48
839.05	215.52
839.37	215.43
839.68	214.24
840.00	214.02
840.31	214.40
840.63	214.12
840.94	213.81
841.26	213.71
841.57	213.83
841.88	214.00
842.20	213.45
842.51	213.45
842.83	213.45
843.14	215.31
843.46	215.36
843.77	214.14
844.08	214.14
844.40	213.74
844.71	213.55
845.03	213.40
845.34	213.24
845.65	213.10
845.97	213.26
846.28	213.45
846.60	213.74
846.91	213.48
847.22	213.45
847.54	213.88
847.85	214.02
848.16	213.74
848.48	213.02
848.79	214.14
849.10	214.43
849.42	214.67
849.73	212.48
850.04	212.48
850.36	211.88
850.67	212.19
850.98	212.10
851.30	212.31
851.61	212.29
851.92	212.33
852.23	212.88
852.55	212.98
852.86	213.07
853.17	213.36
853.49	213.67
853.80	214.12
854.11	214.45
854.42	214.69
854.74	214.64
855.05	215.19
855.36	213.79
855.67	213.81
855.99	213.67
856.30	216.26
856.61	216.10
856.92	215.93
857.23	216.14
857.55	215.90
857.86	215.76
858.17	216.38
858.48	216.19
858.79	216.00
859.11	216.00
859.42	215.95
859.73	215.83
860.04	215.71
860.35	215.14
860.66	214.57
860.98	214.52
861.29	214.57
861.60	214.07
861.91	214.81
862.22	214.29
862.53	214.24
862.84	211.83
863.16	212.50
863.47	212.36
863.78	211.98
864.09	212.19
864.40	212.29
864.71	212.05
865.02	212.38
865.33	211.95
865.64	211.69
865.95	211.79
866.27	212.83
866.58	212.57
866.89	212.98
867.20	212.79
867.51	212.38
867.82	212.21
868.13	212.90
868.44	212.45
868.75	213.07
869.06	213.12
869.37	213.52
869.68	212.74
869.99	213.17
870.30	213.33
870.61	213.57
870.92	213.50
871.23	213.43
871.54	213.67
871.85	214.07
872.16	214.43
872.47	214.38
872.78	213.14
873.09	213.50
873.40	213.14
873.71	213.38
874.02	213.57
874.33	213.67
874.64	213.40
874.95	213.76
875.26	213.33
875.56	213.26
875.87	212.95
876.18	213.02
876.49	214.79
876.80	214.50
877.11	214.24
877.42	214.10
877.73	214.02
878.04	213.69
878.35	213.76
878.66	213.67
878.96	213.36
879.27	213.31
879.58	212.95
879.89	212.93
880.20	213.69
880.51	213.62
880.82	213.31
881.12	213.36
881.43	212.93
881.74	212.79
882.05	212.57
882.36	212.71
882.67	212.81
882.97	210.74
883.28	210.64
883.59	210.55
883.90	210.98
884.21	211.12
884.51	210.93
884.82	210.76
885.13	210.62
885.44	210.71
885.74	210.79
886.05	210.83
886.36	211.10
886.67	210.14
886.98	211.19
887.28	211.71
887.59	211.62
887.90	211.74
888.20	211.71
888.51	212.19
888.82	212.07
889.13	212.12
889.43	213.74
889.74	213.67
890.05	213.43
890.35	213.10
890.66	212.83
890.97	212.88
891.28	212.60
891.58	212.74
891.89	212.79
892.20	212.67
892.50	212.57
892.81	212.17
893.12	212.38
893.42	211.31
893.73	211.43
894.04	211.21
894.34	211.38
894.65	211.38
894.95	211.17
895.26	211.19
895.57	212.17
895.87	210.33
896.18	210.79
896.48	211.19
896.79	211.17
897.10	211.50
897.40	211.55
897.71	212.02
898.01	211.88
898.32	212.05
898.63	212.12
898.93	212.19
899.24	212.29
899.54	212.24
899.85	212.24
900.15	212.00
900.46	212.17
900.76	212.36
901.07	212.31
901.38	212.17
901.68	212.45
901.99	211.60
902.29	211.81
902.60	211.60
902.90	211.33
903.21	211.21
903.51	211.36
903.82	211.88
904.12	211.93
904.43	212.02
904.73	211.98
905.03	211.93
905.34	213.93
905.64	214.07
905.95	214.12
906.25	214.14
906.56	214.21
906.86	214.40
907.17	214.17
907.47	214.50
907.77	214.52
908.08	213.95
908.38	214.07
908.69	214.36
908.99	214.71
909.30	214.86
909.60	215.10
909.90	215.05
910.21	214.48
910.51	214.10
910.81	214.12
911.12	214.19
911.42	214.19
911.73	212.14
912.03	211.98
912.33	212.24
912.64	212.21
912.94	212.10
913.24	211.50
913.55	211.40
913.85	211.17
914.15	211.45
914.46	212.05
914.76	211.90
915.06	211.67
915.37	211.21
915.67	211.00
915.97	210.83
916.27	210.36
916.58	210.31
916.88	210.12
917.18	209.90
917.49	211.12
917.79	211.29
918.09	211.48
918.39	212.10
918.70	212.10
919.00	211.93
919.30	212.79
919.60	212.95
919.91	212.79
920.21	212.86
920.51	212.52
920.81	212.10
921.12	212.19
921.42	212.10
921.72	212.45
922.02	212.62
922.32	212.90
922.63	213.12
922.93	214.05
923.23	214.14
923.53	214.17
923.83	212.83
924.13	213.10
924.44	213.05
924.74	213.24
925.04	213.64
925.34	213.93
925.64	213.19
925.94	213.31
926.24	214.38
926.55	214.12
926.85	214.50
927.15	214.52
927.45	214.52
927.75	214.43
928.05	214.60
928.35	214.62
928.65	215.12
928.95	215.29
929.26	214.64
929.56	215.24
929.86	215.48
930.16	215.31
930.46	214.93
930.76	215.07
931.06	214.26
931.36	213.71
931.66	214.29
931.96	214.60
932.26	214.90
932.56	214.31
932.86	214.52
933.16	214.45
933.46	214.45
933.76	214.24
934.06	214.64
934.36	214.93
934.66	214.57
934.96	214.00
935.26	213.88
935.56	214.10
935.86	213.60
936.16	213.55
936.46	213.62
936.76	213.52
937.06	213.14
937.36	213.21
937.66	213.48
937.96	212.88
938.26	212.19
938.56	211.79
938.86	211.60
939.16	211.98
939.46	211.95
939.76	212.14
940.06	212.12
940.35	211.88
940.65	211.05
940.95	211.52
941.25	211.21
941.55	211.10
941.85	210.83
942.15	211.17
942.45	211.60
942.75	211.69
943.04	211.81
943.34	212.36
943.64	212.17
943.94	211.52
944.24	211.88
944.54	212.17
944.84	212.10
945.13	211.93
945.43	211.64
945.73	211.50
946.03	211.24
946.33	211.02
946.62	210.81
946.92	211.00
947.22	211.10
947.52	211.26
947.82	211.48
948.11	211.24
948.41	210.74
948.71	210.00
949.01	209.93
949.31	209.69
949.60	209.69
949.90	209.88
950.20	209.93
950.50	209.93
950.79	209.62
951.09	210.05
951.39	209.98
951.69	209.79
951.98	210.31
952.28	210.45
952.58	210.43
952.87	210.62
953.17	210.67
953.47	210.40
953.76	210.45
954.06	210.00
954.36	209.93
954.66	209.79
954.95	210.48
955.25	210.48
955.55	210.93
955.84	210.40
956.14	210.62
956.44	210.67
956.73	210.12
957.03	210.17
957.32	210.00
957.62	210.10
957.92	210.67
958.21	210.33
958.51	212.64
958.81	212.79
959.10	212.88
959.40	213.17
959.69	213.26
959.99	213.62
960.29	213.64
960.58	213.50
960.88	214.62
961.17	214.36
961.47	214.71
961.76	214.45
962.06	214.88
962.36	214.83
962.65	215.02
962.95	215.24
963.24	215.12
963.54	215.02
963.83	214.95
964.13	214.57
964.42	214.17
964.72	212.50
965.01	212.71
965.31	212.64
965.60	212.33
965.90	213.60
966.19	212.95
966.49	213.33
966.78	213.45
967.08	213.07
967.37	213.00
967.67	212.55
967.96	212.76
968.26	212.48
968.55	212.79
968.85	212.76
969.14	212.60
969.43	212.74
969.73	212.71
970.02	212.74
970.32	212.98
970.61	212.93
970.91	211.98
971.20	211.55
971.49	211.26
971.79	211.40
972.08	210.05
972.38	210.33
972.67	210.29
972.96	210.62
973.26	210.40
973.55	210.98
973.85	210.88
974.14	210.86
974.43	211.00
974.73	210.52
975.02	210.26
975.31	210.31
975.61	210.45
975.90	210.26
976.19	210.21
976.49	210.05
976.78	210.10
977.07	210.55
977.37	210.74
977.66	210.95
977.95	210.86
978.24	210.90
978.54	211.52
978.83	211.05
979.12	210.88
979.42	210.74
979.71	210.24
980.00	210.33
980.29	210.33
980.59	210.02
980.88	210.64
981.17	210.62
981.46	210.57
981.76	210.38
982.05	211.14
982.34	211.19
982.63	211.10
982.93	211.40
983.22	211.83
983.51	212.02
983.80	212.24
984.09	212.38
984.39	212.45
984.68	211.81
984.97	212.24
985.26	211.95
985.55	212.29
985.85	211.98
986.14	212.40
986.43	212.55
986.72	212.64
987.01	211.74
987.30	211.90
987.59	211.71
987.89	212.00
988.18	211.40
988.47	211.36
988.76	211.43
989.05	211.12
989.34	210.76
989.63	211.14
989.92	210.88
990.22	210.81
990.51	210.79
990.80	210.69
991.09	210.67
991.38	210.90
991.67	210.36
991.96	210.24
992.25	209.98
992.54	209.62
992.83	209.55
993.12	209.79
993.41	210.05
993.70	210.83
993.99	211.14
994.28	211.48
994.58	211.67
994.87	211.36
995.16	211.38
995.45	211.02
995.74	210.48
996.03	210.83
996.32	211.02
996.61	211.52
996.90	211.62
997.19	211.76
997.48	212.02
997.77	211.90
998.06	211.98
998.34	211.95
998.63	211.98
998.92	212.12
999.21	212.36
999.50	212.07
999.79	211.95
1000.08	211.83
1000.37	211.60
1000.66	211.12
1000.95	211.67
1001.24	211.76
1001.53	212.21
1001.82	212.10
1002.11	211.79
1002.40	211.76
1002.68	211.98
1002.97	213.29
1003.26	212.79
1003.55	212.45
1003.84	212.60
1004.13	213.40
1004.42	213.31
1004.71	213.45
1004.99	213.29
1005.28	213.86
1005.57	214.10
1005.86	213.60
1006.15	213.50
1006.44	213.36
1006.72	213.95
1007.01	213.48
1007.30	213.48
1007.59	213.26
1007.88	213.17
1008.17	213.26
1008.45	212.98
1008.74	212.05
1009.03	211.24
1009.32	211.43
1009.60	211.26
1009.89	211.40
1010.18	210.40
1010.47	210.29
1010.76	210.10
1011.04	210.07
1011.33	210.21
1011.62	210.19
1011.91	210.12
1012.19	210.12
1012.48	210.14
1012.77	209.90
1013.05	211.05
1013.34	211.00
1013.63	211.00
1013.92	211.19
1014.20	210.71
1014.49	210.88
1014.78	211.19
1015.06	210.43
1015.35	210.36
1015.64	210.74
1015.92	210.90
1016.21	211.14
1016.50	211.24
1016.78	211.40
1017.07	211.64
1017.36	210.90
1017.64	210.52
1017.93	210.90
1018.22	210.57
1018.50	210.43
1018.79	210.52
1019.08	209.57
1019.36	209.69
1019.65	209.36
1019.93	209.88
1020.22	210.52
1020.51	211.31
1020.79	210.95
1021.08	206.50
1021.36	204.50
1021.65	212.00
1021.94	211.00
1022.22	210.50
1022.51	205.00
1022.79	219.50
1023.08	215.50
1023.36	231.50
1023.65	204.00
>>>>>End Processed Spectral Data<<<<<
